,d2o 181 By Administrator Date Thursday. December 16 2021,
Time,14:12:07,
Wavenumbers [1/cm],Transmittance %,
7000.000,7.05459,
6999.000,7.02178,
6998.000,6.98902,
6997.000,6.95603,
6996.000,6.92582,
6995.000,6.90094,
6994.000,6.87891,
6993.000,6.8538,
6992.000,6.82186,
6991.000,6.78401,
6990.000,6.74389,
6989.000,6.70582,
6988.000,6.673,
6987.000,6.64471,
6986.000,6.61643,
6985.000,6.58557,
6984.000,6.55603,
6983.000,6.53307,
6982.000,6.51511,
6981.000,6.49495,
6980.000,6.46865,
6979.000,6.43897,
6978.000,6.40951,
6977.000,6.37951,
6976.000,6.34663,
6975.000,6.31189,
6974.000,6.27873,
6973.000,6.24961,
6972.000,6.22525,
6971.000,6.2057,
6970.000,6.18953,
6969.000,6.17217,
6968.000,6.14815,
6967.000,6.11567,
6966.000,6.07824,
6965.000,6.04179,
6964.000,6.01009,
6963.000,5.98263,
6962.000,5.9563,
6961.000,5.92866,
6960.000,5.89976,
6959.000,5.87133,
6958.000,5.84504,
6957.000,5.82152,
6956.000,5.80079,
6955.000,5.78287,
6954.000,5.76784,
6953.000,5.75474,
6952.000,5.74052,
6951.000,5.72096,
6950.000,5.69376,
6949.000,5.66075,
6948.000,5.62599,
6947.000,5.5918,
6946.000,5.55794,
6945.000,5.52484,
6944.000,5.49523,
6943.000,5.47139,
6942.000,5.45212,
6941.000,5.43374,
6940.000,5.41361,
6939.000,5.3918,
6938.000,5.36992,
6937.000,5.34901,
6936.000,5.32811,
6935.000,5.30447,
6934.000,5.27616,
6933.000,5.24528,
6932.000,5.21734,
6931.000,5.19582,
6930.000,5.17769,
6929.000,5.15655,
6928.000,5.12999,
6927.000,5.10218,
6926.000,5.07869,
6925.000,5.05997,
6924.000,5.04141,
6923.000,5.01979,
6922.000,4.99762,
6921.000,4.9796,
6920.000,4.96629,
6919.000,4.95383,
6918.000,4.93926,
6917.000,4.92344,
6916.000,4.9077,
6915.000,4.89063,
6914.000,4.87077,
6913.000,4.84975,
6912.000,4.82948,
6911.000,4.80834,
6910.000,4.78378,
6909.000,4.75756,
6908.000,4.73455,
6907.000,4.71622,
6906.000,4.69909,
6905.000,4.68035,
6904.000,4.66118,
6903.000,4.64332,
6902.000,4.62583,
6901.000,4.60658,
6900.000,4.5844,
6899.000,4.55949,
6898.000,4.5339,
6897.000,4.5118,
6896.000,4.49604,
6895.000,4.48406,
6894.000,4.47076,
6893.000,4.45542,
6892.000,4.4416,
6891.000,4.42972,
6890.000,4.41471,
6889.000,4.39384,
6888.000,4.37201,
6887.000,4.3551,
6886.000,4.34225,
6885.000,4.32893,
6884.000,4.31417,
6883.000,4.30013,
6882.000,4.28665,
6881.000,4.27072,
6880.000,4.25128,
6879.000,4.2307,
6878.000,4.21129,
6877.000,4.19344,
6876.000,4.17687,
6875.000,4.16149,
6874.000,4.14747,
6873.000,4.13601,
6872.000,4.12853,
6871.000,4.12328,
6870.000,4.11454,
6869.000,4.09819,
6868.000,4.07678,
6867.000,4.05583,
6866.000,4.03682,
6865.000,4.01744,
6864.000,3.99739,
6863.000,3.98006,
6862.000,3.96785,
6861.000,3.95925,
6860.000,3.95193,
6859.000,3.9459,
6858.000,3.94194,
6857.000,3.93899,
6856.000,3.93441,
6855.000,3.92561,
6854.000,3.91111,
6853.000,3.89148,
6852.000,3.86965,
6851.000,3.8492,
6850.000,3.83206,
6849.000,3.81832,
6848.000,3.80802,
6847.000,3.80122,
6846.000,3.79623,
6845.000,3.78944,
6844.000,3.77793,
6843.000,3.76207,
6842.000,3.74552,
6841.000,3.73255,
6840.000,3.7252,
6839.000,3.72196,
6838.000,3.71925,
6837.000,3.71442,
6836.000,3.70748,
6835.000,3.70035,
6834.000,3.69484,
6833.000,3.69111,
6832.000,3.68743,
6831.000,3.68158,
6830.000,3.6733,
6829.000,3.665,
6828.000,3.65849,
6827.000,3.65207,
6826.000,3.64275,
6825.000,3.6312,
6824.000,3.62167,
6823.000,3.61657,
6822.000,3.61406,
6821.000,3.61144,
6820.000,3.60792,
6819.000,3.60246,
6818.000,3.59292,
6817.000,3.58003,
6816.000,3.56903,
6815.000,3.56415,
6814.000,3.56367,
6813.000,3.56345,
6812.000,3.56342,
6811.000,3.56677,
6810.000,3.5735,
6809.000,3.57869,
6808.000,3.57772,
6807.000,3.5709,
6806.000,3.56285,
6805.000,3.5589,
6804.000,3.5612,
6803.000,3.56657,
6802.000,3.56896,
6801.000,3.5657,
6800.000,3.56027,
6799.000,3.55712,
6798.000,3.55578,
6797.000,3.55314,
6796.000,3.54943,
6795.000,3.54772,
6794.000,3.54888,
6793.000,3.55072,
6792.000,3.55176,
6791.000,3.5526,
6790.000,3.55337,
6789.000,3.55354,
6788.000,3.55461,
6787.000,3.55965,
6786.000,3.56891,
6785.000,3.57936,
6784.000,3.58967,
6783.000,3.60221,
6782.000,3.6181,
6781.000,3.63328,
6780.000,3.64208,
6779.000,3.64348,
6778.000,3.64136,
6777.000,3.63967,
6776.000,3.63921,
6775.000,3.6395,
6774.000,3.64145,
6773.000,3.64718,
6772.000,3.65764,
6771.000,3.67158,
6770.000,3.68676,
6769.000,3.70149,
6768.000,3.7147,
6767.000,3.72559,
6766.000,3.73465,
6765.000,3.74447,
6764.000,3.75724,
6763.000,3.77121,
6762.000,3.78149,
6761.000,3.78582,
6760.000,3.78753,
6759.000,3.79115,
6758.000,3.79752,
6757.000,3.805,
6756.000,3.81329,
6755.000,3.82403,
6754.000,3.83824,
6753.000,3.85523,
6752.000,3.87344,
6751.000,3.89085,
6750.000,3.90591,
6749.000,3.91957,
6748.000,3.93525,
6747.000,3.95482,
6746.000,3.97599,
6745.000,3.99534,
6744.000,4.0122,
6743.000,4.0272,
6742.000,4.03909,
6741.000,4.04633,
6740.000,4.05096,
6739.000,4.0576,
6738.000,4.06877,
6737.000,4.08347,
6736.000,4.10014,
6735.000,4.11823,
6734.000,4.13689,
6733.000,4.15496,
6732.000,4.17269,
6731.000,4.19148,
6730.000,4.21204,
6729.000,4.23436,
6728.000,4.2589,
6727.000,4.28579,
6726.000,4.31318,
6725.000,4.33826,
6724.000,4.35986,
6723.000,4.37858,
6722.000,4.39528,
6721.000,4.41154,
6720.000,4.43049,
6719.000,4.45423,
6718.000,4.48079,
6717.000,4.50611,
6716.000,4.52904,
6715.000,4.55187,
6714.000,4.57655,
6713.000,4.60262,
6712.000,4.62839,
6711.000,4.65206,
6710.000,4.67273,
6709.000,4.69242,
6708.000,4.71576,
6707.000,4.74476,
6706.000,4.77512,
6705.000,4.80149,
6704.000,4.82545,
6703.000,4.85358,
6702.000,4.88775,
6701.000,4.92236,
6700.000,4.95246,
6699.000,4.97987,
6698.000,5.00855,
6697.000,5.03864,
6696.000,5.06647,
6695.000,5.09075,
6694.000,5.11383,
6693.000,5.1386,
6692.000,5.16685,
6691.000,5.19896,
6690.000,5.23411,
6689.000,5.27059,
6688.000,5.3069,
6687.000,5.34207,
6686.000,5.37526,
6685.000,5.40642,
6684.000,5.43735,
6683.000,5.4703,
6682.000,5.50528,
6681.000,5.54042,
6680.000,5.57489,
6679.000,5.60946,
6678.000,5.64397,
6677.000,5.67703,
6676.000,5.70894,
6675.000,5.74259,
6674.000,5.77984,
6673.000,5.81898,
6672.000,5.85731,
6671.000,5.89495,
6670.000,5.93411,
6669.000,5.97553,
6668.000,6.01763,
6667.000,6.05936,
6666.000,6.10244,
6665.000,6.14946,
6664.000,6.19996,
6663.000,6.2496,
6662.000,6.29435,
6661.000,6.33483,
6660.000,6.37527,
6659.000,6.41801,
6658.000,6.46129,
6657.000,6.50326,
6656.000,6.54551,
6655.000,6.59071,
6654.000,6.63829,
6653.000,6.68534,
6652.000,6.73046,
6651.000,6.77436,
6650.000,6.81742,
6649.000,6.85968,
6648.000,6.9026,
6647.000,6.94829,
6646.000,6.99706,
6645.000,7.04767,
6644.000,7.09963,
6643.000,7.15266,
6642.000,7.20482,
6641.000,7.25446,
6640.000,7.30372,
6639.000,7.35672,
6638.000,7.41391,
6637.000,7.47131,
6636.000,7.5262,
6635.000,7.58049,
6634.000,7.6366,
6633.000,7.69258,
6632.000,7.74395,
6631.000,7.78937,
6630.000,7.83277,
6629.000,7.8797,
6628.000,7.93235,
6627.000,7.98868,
6626.000,8.04613,
6625.000,8.10565,
6624.000,8.17048,
6623.000,8.24055,
6622.000,8.31005,
6621.000,8.37282,
6620.000,8.42874,
6619.000,8.48269,
6618.000,8.53802,
6617.000,8.59414,
6616.000,8.65026,
6615.000,8.70807,
6614.000,8.76974,
6613.000,8.83541,
6612.000,8.9036,
6611.000,8.97275,
6610.000,9.04138,
6609.000,9.1079,
6608.000,9.17124,
6607.000,9.23124,
6606.000,9.28832,
6605.000,9.34365,
6604.000,9.39946,
6603.000,9.45837,
6602.000,9.52184,
6601.000,9.58946,
6600.000,9.65911,
6599.000,9.72745,
6598.000,9.79167,
6597.000,9.85182,
6596.000,9.91101,
6595.000,9.97216,
6594.000,10.0352,
6593.000,10.0981,
6592.000,10.1603,
6591.000,10.2229,
6590.000,10.2867,
6589.000,10.3505,
6588.000,10.4123,
6587.000,10.4711,
6586.000,10.5284,
6585.000,10.587,
6584.000,10.6482,
6583.000,10.7103,
6582.000,10.7714,
6581.000,10.8323,
6580.000,10.8947,
6579.000,10.9573,
6578.000,11.0167,
6577.000,11.0719,
6576.000,11.126,
6575.000,11.182,
6574.000,11.2393,
6573.000,11.2975,
6572.000,11.3576,
6571.000,11.4195,
6570.000,11.4799,
6569.000,11.5351,
6568.000,11.5847,
6567.000,11.6307,
6566.000,11.6749,
6565.000,11.7189,
6564.000,11.7646,
6563.000,11.812,
6562.000,11.8593,
6561.000,11.9043,
6560.000,11.9478,
6559.000,11.9904,
6558.000,12.031,
6557.000,12.0682,
6556.000,12.1024,
6555.000,12.1355,
6554.000,12.1685,
6553.000,12.2019,
6552.000,12.2358,
6551.000,12.2698,
6550.000,12.3031,
6549.000,12.3357,
6548.000,12.3681,
6547.000,12.3984,
6546.000,12.4235,
6545.000,12.4432,
6544.000,12.4605,
6543.000,12.4775,
6542.000,12.4942,
6541.000,12.5108,
6540.000,12.5281,
6539.000,12.5444,
6538.000,12.5561,
6537.000,12.563,
6536.000,12.5684,
6535.000,12.5737,
6534.000,12.5761,
6533.000,12.5744,
6532.000,12.5719,
6531.000,12.5713,
6530.000,12.5709,
6529.000,12.5683,
6528.000,12.5646,
6527.000,12.5616,
6526.000,12.5581,
6525.000,12.5509,
6524.000,12.5397,
6523.000,12.5254,
6522.000,12.5088,
6521.000,12.4908,
6520.000,12.4729,
6519.000,12.4554,
6518.000,12.4359,
6517.000,12.4134,
6516.000,12.3892,
6515.000,12.3632,
6514.000,12.333,
6513.000,12.2988,
6512.000,12.2649,
6511.000,12.2342,
6510.000,12.2039,
6509.000,12.1703,
6508.000,12.1344,
6507.000,12.0994,
6506.000,12.0652,
6505.000,12.0299,
6504.000,11.9938,
6503.000,11.9592,
6502.000,11.9261,
6501.000,11.8922,
6500.000,11.8568,
6499.000,11.8208,
6498.000,11.7849,
6497.000,11.7486,
6496.000,11.7111,
6495.000,11.6718,
6494.000,11.6299,
6493.000,11.5848,
6492.000,11.5367,
6491.000,11.4858,
6490.000,11.4332,
6489.000,11.3814,
6488.000,11.3329,
6487.000,11.2878,
6486.000,11.2434,
6485.000,11.1984,
6484.000,11.1536,
6483.000,11.1091,
6482.000,11.0631,
6481.000,11.0153,
6480.000,10.9675,
6479.000,10.9205,
6478.000,10.8726,
6477.000,10.8228,
6476.000,10.7723,
6475.000,10.7217,
6474.000,10.6697,
6473.000,10.6163,
6472.000,10.5654,
6471.000,10.52,
6470.000,10.4792,
6469.000,10.4397,
6468.000,10.3996,
6467.000,10.3576,
6466.000,10.3124,
6465.000,10.264,
6464.000,10.2141,
6463.000,10.1637,
6462.000,10.1118,
6461.000,10.0593,
6460.000,10.0094,
6459.000,9.9632,
6458.000,9.91726,
6457.000,9.86768,
6456.000,9.81552,
6455.000,9.76477,
6454.000,9.71676,
6453.000,9.66946,
6452.000,9.62139,
6451.000,9.57368,
6450.000,9.52815,
6449.000,9.48492,
6448.000,9.44185,
6447.000,9.39626,
6446.000,9.34785,
6445.000,9.29987,
6444.000,9.25556,
6443.000,9.21394,
6442.000,9.17122,
6441.000,9.12633,
6440.000,9.08174,
6439.000,9.03828,
6438.000,8.99323,
6437.000,8.94507,
6436.000,8.89683,
6435.000,8.85172,
6434.000,8.80835,
6433.000,8.76317,
6432.000,8.71598,
6431.000,8.67003,
6430.000,8.62753,
6429.000,8.58754,
6428.000,8.54786,
6427.000,8.50745,
6426.000,8.46652,
6425.000,8.42526,
6424.000,8.38277,
6423.000,8.33781,
6422.000,8.29142,
6421.000,8.24747,
6420.000,8.20857,
6419.000,8.17212,
6418.000,8.13304,
6417.000,8.09009,
6416.000,8.04653,
6415.000,8.00493,
6414.000,7.96481,
6413.000,7.92587,
6412.000,7.88944,
6411.000,7.85535,
6410.000,7.8206,
6409.000,7.78316,
6408.000,7.74405,
6407.000,7.7043,
6406.000,7.66282,
6405.000,7.61929,
6404.000,7.57608,
6403.000,7.53521,
6402.000,7.49599,
6401.000,7.45751,
6400.000,7.42059,
6399.000,7.38531,
6398.000,7.34942,
6397.000,7.31164,
6396.000,7.27375,
6395.000,7.23721,
6394.000,7.20041,
6393.000,7.16208,
6392.000,7.12457,
6391.000,7.09031,
6390.000,7.05706,
6389.000,7.02051,
6388.000,6.98014,
6387.000,6.9394,
6386.000,6.90091,
6385.000,6.86488,
6384.000,6.83115,
6383.000,6.79961,
6382.000,6.76843,
6381.000,6.73474,
6380.000,6.69755,
6379.000,6.65839,
6378.000,6.61925,
6377.000,6.58144,
6376.000,6.54594,
6375.000,6.51278,
6374.000,6.48042,
6373.000,6.44753,
6372.000,6.41496,
6371.000,6.38429,
6370.000,6.35509,
6369.000,6.32529,
6368.000,6.29393,
6367.000,6.26154,
6366.000,6.22818,
6365.000,6.19314,
6364.000,6.1568,
6363.000,6.12105,
6362.000,6.08735,
6361.000,6.05556,
6360.000,6.02492,
6359.000,5.99491,
6358.000,5.96494,
6357.000,5.9343,
6356.000,5.90278,
6355.000,5.87104,
6354.000,5.83984,
6353.000,5.80917,
6352.000,5.77839,
6351.000,5.74699,
6350.000,5.71582,
6349.000,5.6871,
6348.000,5.66234,
6347.000,5.63964,
6346.000,5.61443,
6345.000,5.58369,
6344.000,5.54869,
6343.000,5.51285,
6342.000,5.47778,
6341.000,5.44307,
6340.000,5.40908,
6339.000,5.37818,
6338.000,5.3521,
6337.000,5.32922,
6336.000,5.30566,
6335.000,5.27914,
6334.000,5.25093,
6333.000,5.22347,
6332.000,5.19668,
6331.000,5.16822,
6330.000,5.13733,
6329.000,5.10652,
6328.000,5.07833,
6327.000,5.05186,
6326.000,5.02442,
6325.000,4.99546,
6324.000,4.9667,
6323.000,4.93883,
6322.000,4.91094,
6321.000,4.88313,
6320.000,4.85707,
6319.000,4.83315,
6318.000,4.80952,
6317.000,4.78489,
6316.000,4.75997,
6315.000,4.73515,
6314.000,4.70938,
6313.000,4.68289,
6312.000,4.65857,
6311.000,4.63798,
6310.000,4.61774,
6309.000,4.59287,
6308.000,4.56293,
6307.000,4.53192,
6306.000,4.50271,
6305.000,4.47462,
6304.000,4.4469,
6303.000,4.4213,
6302.000,4.39949,
6301.000,4.37979,
6300.000,4.35888,
6299.000,4.33581,
6298.000,4.31263,
6297.000,4.29096,
6296.000,4.26989,
6295.000,4.24762,
6294.000,4.22401,
6293.000,4.2001,
6292.000,4.17608,
6291.000,4.15117,
6290.000,4.1256,
6289.000,4.10118,
6288.000,4.07929,
6287.000,4.05901,
6286.000,4.03834,
6285.000,4.0167,
6284.000,3.99513,
6283.000,3.97422,
6282.000,3.95296,
6281.000,3.92985,
6280.000,3.90466,
6279.000,3.87874,
6278.000,3.85391,
6277.000,3.83123,
6276.000,3.81056,
6275.000,3.79132,
6274.000,3.77343,
6273.000,3.75708,
6272.000,3.74175,
6271.000,3.72629,
6270.000,3.71029,
6269.000,3.69458,
6268.000,3.67964,
6267.000,3.66446,
6266.000,3.64751,
6265.000,3.62805,
6264.000,3.60597,
6263.000,3.58139,
6262.000,3.55555,
6261.000,3.53087,
6260.000,3.50885,
6259.000,3.48841,
6258.000,3.46746,
6257.000,3.44552,
6256.000,3.42376,
6255.000,3.40308,
6254.000,3.3839,
6253.000,3.36692,
6252.000,3.35254,
6251.000,3.33941,
6250.000,3.32521,
6249.000,3.3089,
6248.000,3.29118,
6247.000,3.27287,
6246.000,3.25406,
6245.000,3.23478,
6244.000,3.21532,
6243.000,3.19588,
6242.000,3.17659,
6241.000,3.15784,
6240.000,3.13966,
6239.000,3.12163,
6238.000,3.10422,
6237.000,3.08912,
6236.000,3.07679,
6235.000,3.06485,
6234.000,3.05075,
6233.000,3.03536,
6232.000,3.02148,
6231.000,3.00938,
6230.000,2.99637,
6229.000,2.98088,
6228.000,2.96447,
6227.000,2.94916,
6226.000,2.93502,
6225.000,2.92128,
6224.000,2.90781,
6223.000,2.89465,
6222.000,2.88149,
6221.000,2.86844,
6220.000,2.8562,
6219.000,2.84474,
6218.000,2.83328,
6217.000,2.82171,
6216.000,2.81065,
6215.000,2.79994,
6214.000,2.78843,
6213.000,2.77594,
6212.000,2.76362,
6211.000,2.75218,
6210.000,2.74103,
6209.000,2.7299,
6208.000,2.71945,
6207.000,2.70962,
6206.000,2.69911,
6205.000,2.68733,
6204.000,2.67545,
6203.000,2.66462,
6202.000,2.65475,
6201.000,2.64554,
6200.000,2.6374,
6199.000,2.63014,
6198.000,2.62214,
6197.000,2.61187,
6196.000,2.59915,
6195.000,2.58456,
6194.000,2.56893,
6193.000,2.55444,
6192.000,2.54439,
6191.000,2.54048,
6190.000,2.54091,
6189.000,2.54208,
6188.000,2.54126,
6187.000,2.53707,
6186.000,2.52902,
6185.000,2.51804,
6184.000,2.50655,
6183.000,2.49697,
6182.000,2.49045,
6181.000,2.48708,
6180.000,2.48618,
6179.000,2.48551,
6178.000,2.4821,
6177.000,2.47542,
6176.000,2.46835,
6175.000,2.46383,
6174.000,2.4615,
6173.000,2.45923,
6172.000,2.45658,
6171.000,2.45484,
6170.000,2.45425,
6169.000,2.45295,
6168.000,2.44907,
6167.000,2.44255,
6166.000,2.43473,
6165.000,2.42738,
6164.000,2.42192,
6163.000,2.41892,
6162.000,2.4182,
6161.000,2.41964,
6160.000,2.42343,
6159.000,2.42898,
6158.000,2.43419,
6157.000,2.4366,
6156.000,2.43514,
6155.000,2.43071,
6154.000,2.42548,
6153.000,2.42182,
6152.000,2.42095,
6151.000,2.42217,
6150.000,2.42401,
6149.000,2.426,
6148.000,2.42839,
6147.000,2.4303,
6146.000,2.43016,
6145.000,2.42839,
6144.000,2.4278,
6143.000,2.43013,
6142.000,2.43401,
6141.000,2.43721,
6140.000,2.43952,
6139.000,2.44174,
6138.000,2.44387,
6137.000,2.44607,
6136.000,2.44988,
6135.000,2.45662,
6134.000,2.46518,
6133.000,2.47333,
6132.000,2.48031,
6131.000,2.48652,
6130.000,2.49157,
6129.000,2.49483,
6128.000,2.49736,
6127.000,2.50117,
6126.000,2.50682,
6125.000,2.51332,
6124.000,2.52048,
6123.000,2.52908,
6122.000,2.53867,
6121.000,2.54718,
6120.000,2.55331,
6119.000,2.55795,
6118.000,2.5624,
6117.000,2.5665,
6116.000,2.56975,
6115.000,2.57349,
6114.000,2.58058,
6113.000,2.5925,
6112.000,2.60746,
6111.000,2.62181,
6110.000,2.63344,
6109.000,2.6432,
6108.000,2.6527,
6107.000,2.66187,
6106.000,2.66982,
6105.000,2.67747,
6104.000,2.68702,
6103.000,2.69859,
6102.000,2.70961,
6101.000,2.71862,
6100.000,2.72752,
6099.000,2.73861,
6098.000,2.75144,
6097.000,2.76429,
6096.000,2.77717,
6095.000,2.79113,
6094.000,2.80533,
6093.000,2.81752,
6092.000,2.82692,
6091.000,2.83488,
6090.000,2.84304,
6089.000,2.85264,
6088.000,2.86527,
6087.000,2.88199,
6086.000,2.9018,
6085.000,2.92219,
6084.000,2.94116,
6083.000,2.95727,
6082.000,2.96892,
6081.000,2.97597,
6080.000,2.98192,
6079.000,2.9917,
6078.000,3.00644,
6077.000,3.02287,
6076.000,3.038,
6075.000,3.05256,
6074.000,3.06863,
6073.000,3.08616,
6072.000,3.10354,
6071.000,3.12011,
6070.000,3.13672,
6069.000,3.15428,
6068.000,3.17335,
6067.000,3.19426,
6066.000,3.21696,
6065.000,3.24086,
6064.000,3.26536,
6063.000,3.28975,
6062.000,3.31246,
6061.000,3.3316,
6060.000,3.34717,
6059.000,3.36164,
6058.000,3.37747,
6057.000,3.39494,
6056.000,3.41328,
6055.000,3.4328,
6054.000,3.45452,
6053.000,3.47812,
6052.000,3.50216,
6051.000,3.52599,
6050.000,3.55009,
6049.000,3.57428,
6048.000,3.59728,
6047.000,3.61863,
6046.000,3.63978,
6045.000,3.66237,
6044.000,3.68625,
6043.000,3.7106,
6042.000,3.7359,
6041.000,3.76309,
6040.000,3.79123,
6039.000,3.81783,
6038.000,3.84217,
6037.000,3.86655,
6036.000,3.89347,
6035.000,3.92292,
6034.000,3.95331,
6033.000,3.98375,
6032.000,4.01375,
6031.000,4.04196,
6030.000,4.06745,
6029.000,4.09191,
6028.000,4.11872,
6027.000,4.1496,
6026.000,4.18344,
6025.000,4.21839,
6024.000,4.2532,
6023.000,4.28657,
6022.000,4.3172,
6021.000,4.34547,
6020.000,4.37391,
6019.000,4.40479,
6018.000,4.43815,
6017.000,4.47256,
6016.000,4.50692,
6015.000,4.54106,
6014.000,4.57544,
6013.000,4.61049,
6012.000,4.64579,
6011.000,4.67997,
6010.000,4.71224,
6009.000,4.74383,
6008.000,4.77659,
6007.000,4.81072,
6006.000,4.84542,
6005.000,4.88134,
6004.000,4.92065,
6003.000,4.96414,
6002.000,5.01001,
6001.000,5.05553,
6000.000,5.09875,
5999.000,5.13863,
5998.000,5.17542,
5997.000,5.21113,
5996.000,5.24764,
5995.000,5.28457,
5994.000,5.32098,
5993.000,5.35872,
5992.000,5.40086,
5991.000,5.44686,
5990.000,5.4928,
5989.000,5.5374,
5988.000,5.58431,
5987.000,5.63632,
5986.000,5.69081,
5985.000,5.7431,
5984.000,5.79203,
5983.000,5.83954,
5982.000,5.88661,
5981.000,5.93256,
5980.000,5.9773,
5979.000,6.02201,
5978.000,6.06822,
5977.000,6.11713,
5976.000,6.16895,
5975.000,6.22171,
5974.000,6.27268,
5973.000,6.32183,
5972.000,6.3718,
5971.000,6.42348,
5970.000,6.47431,
5969.000,6.52277,
5968.000,6.57148,
5967.000,6.62342,
5966.000,6.67758,
5965.000,6.7317,
5964.000,6.78706,
5963.000,6.84693,
5962.000,6.91155,
5961.000,6.9778,
5960.000,7.04309,
5959.000,7.10648,
5958.000,7.16675,
5957.000,7.223,
5956.000,7.27692,
5955.000,7.33174,
5954.000,7.38862,
5953.000,7.44623,
5952.000,7.50387,
5951.000,7.56245,
5950.000,7.62221,
5949.000,7.68178,
5948.000,7.74032,
5947.000,7.7989,
5946.000,7.85883,
5945.000,7.91983,
5944.000,7.98042,
5943.000,8.03954,
5942.000,8.09766,
5941.000,8.15644,
5940.000,8.21719,
5939.000,8.2795,
5938.000,8.34197,
5937.000,8.40433,
5936.000,8.46767,
5935.000,8.53237,
5934.000,8.59701,
5933.000,8.66003,
5932.000,8.72087,
5931.000,8.77903,
5930.000,8.83383,
5929.000,8.88621,
5928.000,8.93904,
5927.000,8.99458,
5926.000,9.05284,
5925.000,9.11322,
5924.000,9.17562,
5923.000,9.23891,
5922.000,9.30031,
5921.000,9.35814,
5920.000,9.41357,
5919.000,9.46845,
5918.000,9.52295,
5917.000,9.5767,
5916.000,9.6305,
5915.000,9.68515,
5914.000,9.73982,
5913.000,9.79308,
5912.000,9.84444,
5911.000,9.89343,
5910.000,9.93893,
5909.000,9.9808,
5908.000,10.0207,
5907.000,10.0598,
5906.000,10.0976,
5905.000,10.1334,
5904.000,10.1681,
5903.000,10.2033,
5902.000,10.2389,
5901.000,10.2742,
5900.000,10.3091,
5899.000,10.3433,
5898.000,10.3757,
5897.000,10.4054,
5896.000,10.4327,
5895.000,10.4578,
5894.000,10.4803,
5893.000,10.5009,
5892.000,10.521,
5891.000,10.5406,
5890.000,10.558,
5889.000,10.5731,
5888.000,10.5876,
5887.000,10.6016,
5886.000,10.6122,
5885.000,10.6173,
5884.000,10.6192,
5883.000,10.6211,
5882.000,10.6235,
5881.000,10.6248,
5880.000,10.6243,
5879.000,10.6225,
5878.000,10.6186,
5877.000,10.6118,
5876.000,10.6023,
5875.000,10.5909,
5874.000,10.5787,
5873.000,10.5663,
5872.000,10.5537,
5871.000,10.5392,
5870.000,10.5205,
5869.000,10.4975,
5868.000,10.473,
5867.000,10.4488,
5866.000,10.4241,
5865.000,10.3975,
5864.000,10.3704,
5863.000,10.3445,
5862.000,10.3189,
5861.000,10.2918,
5860.000,10.2626,
5859.000,10.233,
5858.000,10.2042,
5857.000,10.1766,
5856.000,10.1493,
5855.000,10.1206,
5854.000,10.0892,
5853.000,10.0551,
5852.000,10.0191,
5851.000,9.98109,
5850.000,9.94047,
5849.000,9.89802,
5848.000,9.85608,
5847.000,9.81586,
5846.000,9.77623,
5845.000,9.73574,
5844.000,9.69426,
5843.000,9.65207,
5842.000,9.60903,
5841.000,9.56531,
5840.000,9.52162,
5839.000,9.4781,
5838.000,9.43428,
5837.000,9.39034,
5836.000,9.34675,
5835.000,9.3027,
5834.000,9.25686,
5833.000,9.20993,
5832.000,9.16408,
5831.000,9.11953,
5830.000,9.07392,
5829.000,9.02597,
5828.000,8.97718,
5827.000,8.9291,
5826.000,8.88137,
5825.000,8.83374,
5824.000,8.78765,
5823.000,8.7442,
5822.000,8.70224,
5821.000,8.66005,
5820.000,8.61725,
5819.000,8.57382,
5818.000,8.52902,
5817.000,8.48276,
5816.000,8.43643,
5815.000,8.39094,
5814.000,8.34562,
5813.000,8.30038,
5812.000,8.25711,
5811.000,8.21695,
5810.000,8.17783,
5809.000,8.13691,
5808.000,8.09417,
5807.000,8.05163,
5806.000,8.00974,
5805.000,7.96711,
5804.000,7.92325,
5803.000,7.87943,
5802.000,7.83652,
5801.000,7.79373,
5800.000,7.75021,
5799.000,7.70669,
5798.000,7.66484,
5797.000,7.62515,
5796.000,7.58602,
5795.000,7.54507,
5794.000,7.50154,
5793.000,7.45714,
5792.000,7.41417,
5791.000,7.37333,
5790.000,7.33381,
5789.000,7.29501,
5788.000,7.25665,
5787.000,7.21749,
5786.000,7.17596,
5785.000,7.13241,
5784.000,7.08917,
5783.000,7.04777,
5782.000,7.00757,
5781.000,6.96771,
5780.000,6.9286,
5779.000,6.89036,
5778.000,6.85158,
5777.000,6.81127,
5776.000,6.77105,
5775.000,6.73321,
5774.000,6.69743,
5773.000,6.66096,
5772.000,6.62219,
5771.000,6.58214,
5770.000,6.54231,
5769.000,6.50249,
5768.000,6.46184,
5767.000,6.42101,
5766.000,6.382,
5765.000,6.34566,
5764.000,6.31037,
5763.000,6.27395,
5762.000,6.23627,
5761.000,6.19875,
5760.000,6.16175,
5759.000,6.12383,
5758.000,6.08444,
5757.000,6.04547,
5756.000,6.00895,
5755.000,5.97424,
5754.000,5.93917,
5753.000,5.90294,
5752.000,5.8663,
5751.000,5.82939,
5750.000,5.79194,
5749.000,5.75508,
5748.000,5.72065,
5747.000,5.68815,
5746.000,5.65471,
5745.000,5.61891,
5744.000,5.5825,
5743.000,5.54779,
5742.000,5.51504,
5741.000,5.48363,
5740.000,5.45396,
5739.000,5.42635,
5738.000,5.39938,
5737.000,5.37087,
5736.000,5.34015,
5735.000,5.30821,
5734.000,5.27594,
5733.000,5.24341,
5732.000,5.21043,
5731.000,5.17699,
5730.000,5.14356,
5729.000,5.1114,
5728.000,5.0818,
5727.000,5.05467,
5726.000,5.0284,
5725.000,5.0016,
5724.000,4.97407,
5723.000,4.94555,
5722.000,4.91487,
5721.000,4.88143,
5720.000,4.84689,
5719.000,4.81394,
5718.000,4.78377,
5717.000,4.75559,
5716.000,4.72809,
5715.000,4.70032,
5714.000,4.67159,
5713.000,4.6417,
5712.000,4.61151,
5711.000,4.5824,
5710.000,4.55489,
5709.000,4.52823,
5708.000,4.50128,
5707.000,4.47353,
5706.000,4.4455,
5705.000,4.41851,
5704.000,4.39375,
5703.000,4.37102,
5702.000,4.3484,
5701.000,4.32374,
5700.000,4.29663,
5699.000,4.26861,
5698.000,4.24166,
5697.000,4.21656,
5696.000,4.19256,
5695.000,4.16797,
5694.000,4.14117,
5693.000,4.11145,
5692.000,4.07992,
5691.000,4.0491,
5690.000,4.02154,
5689.000,3.99798,
5688.000,3.97653,
5687.000,3.95425,
5686.000,3.92974,
5685.000,3.90404,
5684.000,3.87891,
5683.000,3.85488,
5682.000,3.83133,
5681.000,3.80749,
5680.000,3.78245,
5679.000,3.75525,
5678.000,3.72611,
5677.000,3.69746,
5676.000,3.67226,
5675.000,3.65098,
5674.000,3.6314,
5673.000,3.61108,
5672.000,3.5891,
5671.000,3.56536,
5670.000,3.53999,
5669.000,3.5137,
5668.000,3.48767,
5667.000,3.46217,
5666.000,3.4368,
5665.000,3.41211,
5664.000,3.38966,
5663.000,3.36986,
5662.000,3.35088,
5661.000,3.33083,
5660.000,3.30955,
5659.000,3.28756,
5658.000,3.26461,
5657.000,3.24066,
5656.000,3.21708,
5655.000,3.19517,
5654.000,3.17428,
5653.000,3.1529,
5652.000,3.13115,
5651.000,3.11045,
5650.000,3.09123,
5649.000,3.07236,
5648.000,3.0529,
5647.000,3.03292,
5646.000,3.01255,
5645.000,2.99179,
5644.000,2.97153,
5643.000,2.9534,
5642.000,2.9377,
5641.000,2.92262,
5640.000,2.90594,
5639.000,2.8867,
5638.000,2.86499,
5637.000,2.84105,
5636.000,2.81573,
5635.000,2.79109,
5634.000,2.7694,
5633.000,2.75141,
5632.000,2.73585,
5631.000,2.72065,
5630.000,2.70428,
5629.000,2.68616,
5628.000,2.66661,
5627.000,2.64649,
5626.000,2.62675,
5625.000,2.60782,
5624.000,2.58946,
5623.000,2.57104,
5622.000,2.55203,
5621.000,2.5323,
5620.000,2.51231,
5619.000,2.49306,
5618.000,2.47565,
5617.000,2.46055,
5616.000,2.44702,
5615.000,2.43357,
5614.000,2.41906,
5613.000,2.40355,
5612.000,2.38763,
5611.000,2.37162,
5610.000,2.35565,
5609.000,2.34044,
5608.000,2.32676,
5607.000,2.31413,
5606.000,2.30071,
5605.000,2.2851,
5604.000,2.26754,
5603.000,2.2491,
5602.000,2.23048,
5601.000,2.21245,
5600.000,2.1963,
5599.000,2.18281,
5598.000,2.171,
5597.000,2.15892,
5596.000,2.14557,
5595.000,2.13116,
5594.000,2.11592,
5593.000,2.09988,
5592.000,2.08392,
5591.000,2.06959,
5590.000,2.05751,
5589.000,2.04666,
5588.000,2.03565,
5587.000,2.024,
5586.000,2.01194,
5585.000,1.99988,
5584.000,1.98849,
5583.000,1.9784,
5582.000,1.96929,
5581.000,1.95976,
5580.000,1.94873,
5579.000,1.93636,
5578.000,1.92339,
5577.000,1.91022,
5576.000,1.89732,
5575.000,1.88554,
5574.000,1.87535,
5573.000,1.86595,
5572.000,1.85616,
5571.000,1.84595,
5570.000,1.83629,
5569.000,1.82774,
5568.000,1.81968,
5567.000,1.81119,
5566.000,1.802,
5565.000,1.79242,
5564.000,1.78286,
5563.000,1.77345,
5562.000,1.76399,
5561.000,1.75411,
5560.000,1.74387,
5559.000,1.73398,
5558.000,1.72512,
5557.000,1.7174,
5556.000,1.71069,
5555.000,1.70529,
5554.000,1.70145,
5553.000,1.69851,
5552.000,1.69519,
5551.000,1.69113,
5550.000,1.68693,
5549.000,1.68258,
5548.000,1.67657,
5547.000,1.66773,
5546.000,1.65746,
5545.000,1.64904,
5544.000,1.64467,
5543.000,1.64371,
5542.000,1.6439,
5541.000,1.6433,
5540.000,1.64078,
5539.000,1.63559,
5538.000,1.62765,
5537.000,1.61836,
5536.000,1.61011,
5535.000,1.60465,
5534.000,1.60203,
5533.000,1.60119,
5532.000,1.60092,
5531.000,1.60031,
5530.000,1.59866,
5529.000,1.59571,
5528.000,1.59173,
5527.000,1.58738,
5526.000,1.5834,
5525.000,1.58033,
5524.000,1.57816,
5523.000,1.57625,
5522.000,1.57405,
5521.000,1.57203,
5520.000,1.57146,
5519.000,1.57301,
5518.000,1.57602,
5517.000,1.57923,
5516.000,1.58176,
5515.000,1.58303,
5514.000,1.5824,
5513.000,1.57983,
5512.000,1.5765,
5511.000,1.57401,
5510.000,1.57284,
5509.000,1.57229,
5508.000,1.57183,
5507.000,1.57183,
5506.000,1.57289,
5505.000,1.57517,
5504.000,1.57846,
5503.000,1.58248,
5502.000,1.58647,
5501.000,1.58933,
5500.000,1.59047,
5499.000,1.59045,
5498.000,1.59045,
5497.000,1.59126,
5496.000,1.59278,
5495.000,1.59439,
5494.000,1.59561,
5493.000,1.5966,
5492.000,1.59796,
5491.000,1.59993,
5490.000,1.60219,
5489.000,1.60452,
5488.000,1.60755,
5487.000,1.61209,
5486.000,1.61795,
5485.000,1.62401,
5484.000,1.62942,
5483.000,1.6343,
5482.000,1.63897,
5481.000,1.64348,
5480.000,1.6481,
5479.000,1.65342,
5478.000,1.65939,
5477.000,1.66498,
5476.000,1.66946,
5475.000,1.67358,
5474.000,1.67865,
5473.000,1.68475,
5472.000,1.69083,
5471.000,1.69645,
5470.000,1.70238,
5469.000,1.70926,
5468.000,1.71662,
5467.000,1.72379,
5466.000,1.73096,
5465.000,1.73865,
5464.000,1.74654,
5463.000,1.75369,
5462.000,1.7598,
5461.000,1.76552,
5460.000,1.77153,
5459.000,1.77791,
5458.000,1.78463,
5457.000,1.79191,
5456.000,1.79964,
5455.000,1.80698,
5454.000,1.81305,
5453.000,1.81791,
5452.000,1.82247,
5451.000,1.82783,
5450.000,1.83509,
5449.000,1.84542,
5448.000,1.85918,
5447.000,1.87489,
5446.000,1.8901,
5445.000,1.90347,
5444.000,1.9154,
5443.000,1.92647,
5442.000,1.93656,
5441.000,1.94571,
5440.000,1.9548,
5439.000,1.96441,
5438.000,1.97394,
5437.000,1.98271,
5436.000,1.99128,
5435.000,2.00089,
5434.000,2.012,
5433.000,2.02408,
5432.000,2.03643,
5431.000,2.04848,
5430.000,2.05985,
5429.000,2.07073,
5428.000,2.08184,
5427.000,2.09351,
5426.000,2.10528,
5425.000,2.11708,
5424.000,2.12978,
5423.000,2.14378,
5422.000,2.15778,
5421.000,2.17021,
5420.000,2.18163,
5419.000,2.19449,
5418.000,2.21066,
5417.000,2.22993,
5416.000,2.25069,
5415.000,2.27122,
5414.000,2.29028,
5413.000,2.30714,
5412.000,2.32165,
5411.000,2.33412,
5410.000,2.3452,
5409.000,2.35622,
5408.000,2.36917,
5407.000,2.38538,
5406.000,2.40442,
5405.000,2.42445,
5404.000,2.44369,
5403.000,2.46114,
5402.000,2.47672,
5401.000,2.49146,
5400.000,2.5071,
5399.000,2.52479,
5398.000,2.54416,
5397.000,2.56405,
5396.000,2.58385,
5395.000,2.60367,
5394.000,2.6235,
5393.000,2.64289,
5392.000,2.66169,
5391.000,2.6803,
5390.000,2.69935,
5389.000,2.7194,
5388.000,2.74088,
5387.000,2.76359,
5386.000,2.7865,
5385.000,2.80847,
5384.000,2.82917,
5383.000,2.84934,
5382.000,2.87022,
5381.000,2.89304,
5380.000,2.91843,
5379.000,2.94594,
5378.000,2.97434,
5377.000,3.00296,
5376.000,3.03195,
5375.000,3.06081,
5374.000,3.08766,
5373.000,3.11097,
5372.000,3.13135,
5371.000,3.15082,
5370.000,3.17092,
5369.000,3.19259,
5368.000,3.21701,
5367.000,3.24502,
5366.000,3.27557,
5365.000,3.3062,
5364.000,3.33517,
5363.000,3.36247,
5362.000,3.38884,
5361.000,3.41493,
5360.000,3.4416,
5359.000,3.46993,
5358.000,3.50081,
5357.000,3.53456,
5356.000,3.57099,
5355.000,3.6091,
5354.000,3.64703,
5353.000,3.68283,
5352.000,3.71564,
5351.000,3.74584,
5350.000,3.77484,
5349.000,3.80518,
5348.000,3.83957,
5347.000,3.87824,
5346.000,3.91791,
5345.000,3.95499,
5344.000,3.98913,
5343.000,4.02276,
5342.000,4.05765,
5341.000,4.09369,
5340.000,4.13064,
5339.000,4.16939,
5338.000,4.21036,
5337.000,4.25211,
5336.000,4.29279,
5335.000,4.33198,
5334.000,4.37051,
5333.000,4.40929,
5332.000,4.44913,
5331.000,4.49052,
5330.000,4.53323,
5329.000,4.5767,
5328.000,4.62076,
5327.000,4.66548,
5326.000,4.71028,
5325.000,4.7539,
5324.000,4.79602,
5323.000,4.83794,
5322.000,4.88125,
5321.000,4.92623,
5320.000,4.97193,
5319.000,5.01753,
5318.000,5.06307,
5317.000,5.10909,
5316.000,5.15607,
5315.000,5.20411,
5314.000,5.25286,
5313.000,5.302,
5312.000,5.35183,
5311.000,5.40297,
5310.000,5.45551,
5309.000,5.50887,
5308.000,5.56276,
5307.000,5.61752,
5306.000,5.67319,
5305.000,5.72897,
5304.000,5.78405,
5303.000,5.83844,
5302.000,5.89226,
5301.000,5.94477,
5300.000,5.99508,
5299.000,6.04369,
5298.000,6.09283,
5297.000,6.14487,
5296.000,6.20074,
5295.000,6.25973,
5294.000,6.32035,
5293.000,6.38097,
5292.000,6.44024,
5291.000,6.49795,
5290.000,6.55552,
5289.000,6.61504,
5288.000,6.67717,
5287.000,6.74036,
5286.000,6.80268,
5285.000,6.86358,
5284.000,6.92331,
5283.000,6.98125,
5282.000,7.03655,
5281.000,7.09026,
5280.000,7.14507,
5279.000,7.20228,
5278.000,7.26038,
5277.000,7.31734,
5276.000,7.37317,
5275.000,7.42941,
5274.000,7.48711,
5273.000,7.54629,
5272.000,7.60633,
5271.000,7.66605,
5270.000,7.72397,
5269.000,7.77965,
5268.000,7.83433,
5267.000,7.88942,
5266.000,7.94519,
5265.000,8.00167,
5264.000,8.05974,
5263.000,8.1196,
5262.000,8.179,
5261.000,8.2348,
5260.000,8.28617,
5259.000,8.33492,
5258.000,8.38267,
5257.000,8.4291,
5256.000,8.47333,
5255.000,8.51585,
5254.000,8.55798,
5253.000,8.60008,
5252.000,8.64143,
5251.000,8.6815,
5250.000,8.72052,
5249.000,8.75896,
5248.000,8.79651,
5247.000,8.83172,
5246.000,8.86328,
5245.000,8.89154,
5244.000,8.91816,
5243.000,8.94405,
5242.000,8.96811,
5241.000,8.98855,
5240.000,9.00516,
5239.000,9.01974,
5238.000,9.0343,
5237.000,9.04908,
5236.000,9.06262,
5235.000,9.07354,
5234.000,9.08199,
5233.000,9.08894,
5232.000,9.09486,
5231.000,9.0992,
5230.000,9.10133,
5229.000,9.10133,
5228.000,9.09964,
5227.000,9.09669,
5226.000,9.09319,
5225.000,9.08995,
5224.000,9.08642,
5223.000,9.08005,
5222.000,9.06861,
5221.000,9.05268,
5220.000,9.03462,
5219.000,9.01528,
5218.000,8.99349,
5217.000,8.96873,
5216.000,8.94221,
5215.000,8.9148,
5214.000,8.8864,
5213.000,8.85769,
5212.000,8.83026,
5211.000,8.80447,
5210.000,8.7789,
5209.000,8.75239,
5208.000,8.72516,
5207.000,8.69734,
5206.000,8.66806,
5205.000,8.63666,
5204.000,8.60336,
5203.000,8.56827,
5202.000,8.53122,
5201.000,8.49245,
5200.000,8.45239,
5199.000,8.41085,
5198.000,8.36752,
5197.000,8.32302,
5196.000,8.27888,
5195.000,8.23586,
5194.000,8.1934,
5193.000,8.15084,
5192.000,8.10829,
5191.000,8.06595,
5190.000,8.02353,
5189.000,7.98077,
5188.000,7.93771,
5187.000,7.89417,
5186.000,7.84984,
5185.000,7.8049,
5184.000,7.75966,
5183.000,7.71359,
5182.000,7.66599,
5181.000,7.61774,
5180.000,7.57123,
5179.000,7.52792,
5178.000,7.48698,
5177.000,7.44639,
5176.000,7.40443,
5175.000,7.35993,
5174.000,7.31252,
5173.000,7.26338,
5172.000,7.21494,
5171.000,7.16891,
5170.000,7.12508,
5169.000,7.0823,
5168.000,7.03987,
5167.000,6.99753,
5166.000,6.95503,
5165.000,6.91231,
5164.000,6.86962,
5163.000,6.82681,
5162.000,6.78311,
5161.000,6.73792,
5160.000,6.69157,
5159.000,6.64498,
5158.000,6.59886,
5157.000,6.55363,
5156.000,6.50951,
5155.000,6.46644,
5154.000,6.42404,
5153.000,6.38203,
5152.000,6.34057,
5151.000,6.29999,
5150.000,6.26045,
5149.000,6.22188,
5148.000,6.18386,
5147.000,6.14548,
5146.000,6.10588,
5145.000,6.06497,
5144.000,6.02358,
5143.000,5.98264,
5142.000,5.94262,
5141.000,5.90353,
5140.000,5.86497,
5139.000,5.82629,
5138.000,5.78735,
5137.000,5.74894,
5136.000,5.71199,
5135.000,5.67641,
5134.000,5.64112,
5133.000,5.60517,
5132.000,5.56816,
5131.000,5.52993,
5130.000,5.49079,
5129.000,5.45194,
5128.000,5.41489,
5127.000,5.37996,
5126.000,5.34605,
5125.000,5.31197,
5124.000,5.27736,
5123.000,5.2423,
5122.000,5.20672,
5121.000,5.17078,
5120.000,5.13491,
5119.000,5.09929,
5118.000,5.0636,
5117.000,5.02773,
5116.000,4.99221,
5115.000,4.95755,
5114.000,4.92353,
5113.000,4.88949,
5112.000,4.85514,
5111.000,4.82065,
5110.000,4.78649,
5109.000,4.7532,
5108.000,4.72112,
5107.000,4.68994,
5106.000,4.65883,
5105.000,4.62711,
5104.000,4.59483,
5103.000,4.56243,
5102.000,4.53016,
5101.000,4.49802,
5100.000,4.46584,
5099.000,4.43346,
5098.000,4.40093,
5097.000,4.36879,
5096.000,4.33775,
5095.000,4.30783,
5094.000,4.27808,
5093.000,4.24737,
5092.000,4.2155,
5091.000,4.18331,
5090.000,4.15199,
5089.000,4.12229,
5088.000,4.09409,
5087.000,4.06644,
5086.000,4.03819,
5085.000,4.00895,
5084.000,3.97946,
5083.000,3.95078,
5082.000,3.92325,
5081.000,3.89625,
5080.000,3.86896,
5079.000,3.84113,
5078.000,3.81297,
5077.000,3.78452,
5076.000,3.75552,
5075.000,3.72598,
5074.000,3.69663,
5073.000,3.66829,
5072.000,3.64109,
5071.000,3.61454,
5070.000,3.58822,
5069.000,3.56211,
5068.000,3.53614,
5067.000,3.51016,
5066.000,3.48429,
5065.000,3.45889,
5064.000,3.43378,
5063.000,3.40807,
5062.000,3.38134,
5061.000,3.35432,
5060.000,3.32808,
5059.000,3.30281,
5058.000,3.27791,
5057.000,3.25315,
5056.000,3.22894,
5055.000,3.20556,
5054.000,3.18277,
5053.000,3.1602,
5052.000,3.13769,
5051.000,3.11506,
5050.000,3.09206,
5049.000,3.06857,
5048.000,3.04458,
5047.000,3.01993,
5046.000,2.99433,
5045.000,2.96795,
5044.000,2.94161,
5043.000,2.91612,
5042.000,2.89171,
5041.000,2.86791,
5040.000,2.84412,
5039.000,2.82011,
5038.000,2.79637,
5037.000,2.7738,
5036.000,2.75282,
5035.000,2.73268,
5034.000,2.71198,
5033.000,2.68991,
5032.000,2.66689,
5031.000,2.64398,
5030.000,2.62208,
5029.000,2.60155,
5028.000,2.58229,
5027.000,2.56372,
5026.000,2.545,
5025.000,2.52544,
5024.000,2.50485,
5023.000,2.48342,
5022.000,2.46145,
5021.000,2.43928,
5020.000,2.41729,
5019.000,2.39596,
5018.000,2.37568,
5017.000,2.35655,
5016.000,2.33821,
5015.000,2.31994,
5014.000,2.30119,
5013.000,2.28204,
5012.000,2.26301,
5011.000,2.24446,
5010.000,2.22619,
5009.000,2.20765,
5008.000,2.18837,
5007.000,2.16823,
5006.000,2.1476,
5005.000,2.12728,
5004.000,2.10803,
5003.000,2.09001,
5002.000,2.07247,
5001.000,2.05424,
5000.000,2.03463,
4999.000,2.01407,
4998.000,1.99389,
4997.000,1.97526,
4996.000,1.95836,
4995.000,1.94239,
4994.000,1.92629,
4993.000,1.90965,
4992.000,1.89283,
4991.000,1.8766,
4990.000,1.86153,
4989.000,1.8476,
4988.000,1.83414,
4987.000,1.82016,
4986.000,1.80492,
4985.000,1.78817,
4984.000,1.76992,
4983.000,1.75033,
4982.000,1.73007,
4981.000,1.71044,
4980.000,1.69269,
4979.000,1.677,
4978.000,1.66249,
4977.000,1.64828,
4976.000,1.6343,
4975.000,1.62103,
4974.000,1.60868,
4973.000,1.5968,
4972.000,1.58458,
4971.000,1.57141,
4970.000,1.55719,
4969.000,1.54238,
4968.000,1.52791,
4967.000,1.51458,
4966.000,1.50252,
4965.000,1.49108,
4964.000,1.47939,
4963.000,1.46696,
4962.000,1.45395,
4961.000,1.44084,
4960.000,1.4282,
4959.000,1.41632,
4958.000,1.40501,
4957.000,1.39369,
4956.000,1.38191,
4955.000,1.36994,
4954.000,1.35853,
4953.000,1.34814,
4952.000,1.33845,
4951.000,1.32888,
4950.000,1.31919,
4949.000,1.30943,
4948.000,1.29958,
4947.000,1.28954,
4946.000,1.27957,
4945.000,1.27023,
4944.000,1.26193,
4943.000,1.25462,
4942.000,1.24801,
4941.000,1.2416,
4940.000,1.23463,
4939.000,1.22632,
4938.000,1.21654,
4937.000,1.20599,
4936.000,1.19566,
4935.000,1.18621,
4934.000,1.178,
4933.000,1.1713,
4932.000,1.16607,
4931.000,1.16167,
4930.000,1.15699,
4929.000,1.15106,
4928.000,1.14359,
4927.000,1.13511,
4926.000,1.12664,
4925.000,1.11909,
4924.000,1.11267,
4923.000,1.10696,
4922.000,1.10143,
4921.000,1.09586,
4920.000,1.09031,
4919.000,1.08503,
4918.000,1.08038,
4917.000,1.07655,
4916.000,1.07315,
4915.000,1.06943,
4914.000,1.06515,
4913.000,1.06067,
4912.000,1.05618,
4911.000,1.05115,
4910.000,1.04515,
4909.000,1.03878,
4908.000,1.03332,
4907.000,1.02962,
4906.000,1.02764,
4905.000,1.02685,
4904.000,1.02624,
4903.000,1.02433,
4902.000,1.02,
4901.000,1.01374,
4900.000,1.00747,
4899.000,1.00283,
4898.000,0.999863,
4897.000,0.997557,
4896.000,0.994992,
4895.000,0.991829,
4894.000,0.988229,
4893.000,0.984839,
4892.000,0.982512,
4891.000,0.981465,
4890.000,0.980853,
4889.000,0.979592,
4888.000,0.977516,
4887.000,0.975384,
4886.000,0.973861,
4885.000,0.972917,
4884.000,0.97219,
4883.000,0.971504,
4882.000,0.970898,
4881.000,0.970352,
4880.000,0.969663,
4879.000,0.968527,
4878.000,0.966771,
4877.000,0.96462,
4876.000,0.962712,
4875.000,0.961666,
4874.000,0.961511,
4873.000,0.961577,
4872.000,0.960996,
4871.000,0.959409,
4870.000,0.957364,
4869.000,0.956111,
4868.000,0.956737,
4867.000,0.959196,
4866.000,0.962146,
4865.000,0.963925,
4864.000,0.963813,
4863.000,0.962484,
4862.000,0.96142,
4861.000,0.961857,
4860.000,0.963933,
4859.000,0.966535,
4858.000,0.967984,
4857.000,0.967216,
4856.000,0.96458,
4855.000,0.961497,
4854.000,0.959412,
4853.000,0.959001,
4852.000,0.960122,
4851.000,0.962133,
4850.000,0.964274,
4849.000,0.966114,
4848.000,0.967754,
4847.000,0.969528,
4846.000,0.97149,
4845.000,0.973354,
4844.000,0.974966,
4843.000,0.97663,
4842.000,0.978813,
4841.000,0.98156,
4840.000,0.98433,
4839.000,0.986421,
4838.000,0.98757,
4837.000,0.988176,
4836.000,0.9889,
4835.000,0.990128,
4834.000,0.99185,
4833.000,0.994017,
4832.000,0.996789,
4831.000,1.00028,
4830.000,1.00415,
4829.000,1.00769,
4828.000,1.01034,
4827.000,1.0123,
4826.000,1.01445,
4825.000,1.01785,
4824.000,1.02281,
4823.000,1.0286,
4822.000,1.03396,
4821.000,1.03813,
4820.000,1.04135,
4819.000,1.04434,
4818.000,1.04754,
4817.000,1.05099,
4816.000,1.0547,
4815.000,1.05882,
4814.000,1.06341,
4813.000,1.06819,
4812.000,1.07258,
4811.000,1.07623,
4810.000,1.0795,
4809.000,1.08337,
4808.000,1.08861,
4807.000,1.095,
4806.000,1.10163,
4805.000,1.10781,
4804.000,1.11361,
4803.000,1.1194,
4802.000,1.12526,
4801.000,1.13099,
4800.000,1.13643,
4799.000,1.14158,
4798.000,1.14658,
4797.000,1.15177,
4796.000,1.15765,
4795.000,1.16446,
4794.000,1.17219,
4793.000,1.18086,
4792.000,1.1905,
4791.000,1.2004,
4790.000,1.20901,
4789.000,1.21517,
4788.000,1.21949,
4787.000,1.22397,
4786.000,1.23017,
4785.000,1.23809,
4784.000,1.24662,
4783.000,1.25481,
4782.000,1.26258,
4781.000,1.27066,
4780.000,1.27996,
4779.000,1.2906,
4778.000,1.30146,
4777.000,1.31096,
4776.000,1.3185,
4775.000,1.3249,
4774.000,1.3316,
4773.000,1.33945,
4772.000,1.34837,
4771.000,1.35771,
4770.000,1.36689,
4769.000,1.37586,
4768.000,1.38516,
4767.000,1.39534,
4766.000,1.40639,
4765.000,1.41772,
4764.000,1.42886,
4763.000,1.43984,
4762.000,1.45105,
4761.000,1.46275,
4760.000,1.47491,
4759.000,1.48716,
4758.000,1.49895,
4757.000,1.50998,
4756.000,1.52058,
4755.000,1.53152,
4754.000,1.54347,
4753.000,1.55653,
4752.000,1.57033,
4751.000,1.58423,
4750.000,1.59762,
4749.000,1.61023,
4748.000,1.62249,
4747.000,1.6352,
4746.000,1.6489,
4745.000,1.66346,
4744.000,1.6783,
4743.000,1.69283,
4742.000,1.7068,
4741.000,1.72044,
4740.000,1.73443,
4739.000,1.74927,
4738.000,1.76485,
4737.000,1.7806,
4736.000,1.79613,
4735.000,1.81154,
4734.000,1.82705,
4733.000,1.84274,
4732.000,1.85873,
4731.000,1.87531,
4730.000,1.8928,
4729.000,1.91129,
4728.000,1.93073,
4727.000,1.95083,
4726.000,1.9709,
4725.000,1.98992,
4724.000,2.00733,
4723.000,2.02361,
4722.000,2.03991,
4721.000,2.05724,
4720.000,2.07597,
4719.000,2.0959,
4718.000,2.11644,
4717.000,2.1371,
4716.000,2.15794,
4715.000,2.17952,
4714.000,2.2022,
4713.000,2.2254,
4712.000,2.24807,
4711.000,2.26974,
4710.000,2.29098,
4709.000,2.31271,
4708.000,2.33536,
4707.000,2.3587,
4706.000,2.38215,
4705.000,2.40536,
4704.000,2.42842,
4703.000,2.45178,
4702.000,2.47585,
4701.000,2.50061,
4700.000,2.52574,
4699.000,2.5511,
4698.000,2.57692,
4697.000,2.60345,
4696.000,2.63073,
4695.000,2.65864,
4694.000,2.6871,
4693.000,2.71582,
4692.000,2.74429,
4691.000,2.77235,
4690.000,2.80055,
4689.000,2.82962,
4688.000,2.8595,
4687.000,2.88928,
4686.000,2.91814,
4685.000,2.94622,
4684.000,2.97456,
4683.000,3.00422,
4682.000,3.03561,
4681.000,3.06816,
4680.000,3.10072,
4679.000,3.13239,
4678.000,3.16327,
4677.000,3.19413,
4676.000,3.22552,
4675.000,3.25755,
4674.000,3.29046,
4673.000,3.32483,
4672.000,3.36086,
4671.000,3.39779,
4670.000,3.43457,
4669.000,3.47084,
4668.000,3.50705,
4667.000,3.54393,
4666.000,3.58207,
4665.000,3.62157,
4664.000,3.66191,
4663.000,3.70226,
4662.000,3.7424,
4661.000,3.78314,
4660.000,3.8254,
4659.000,3.86917,
4658.000,3.9135,
4657.000,3.95745,
4656.000,4.00068,
4655.000,4.04338,
4654.000,4.08624,
4653.000,4.13023,
4652.000,4.17597,
4651.000,4.22328,
4650.000,4.27174,
4649.000,4.32127,
4648.000,4.37185,
4647.000,4.42285,
4646.000,4.4733,
4645.000,4.52279,
4644.000,4.57174,
4643.000,4.62075,
4642.000,4.67022,
4641.000,4.72044,
4640.000,4.77153,
4639.000,4.82323,
4638.000,4.87511,
4637.000,4.92713,
4636.000,4.97945,
4635.000,5.03198,
4634.000,5.08442,
4633.000,5.13678,
4632.000,5.18932,
4631.000,5.24201,
4630.000,5.29463,
4629.000,5.34732,
4628.000,5.40066,
4627.000,5.4549,
4626.000,5.50967,
4625.000,5.56445,
4624.000,5.61881,
4623.000,5.67241,
4622.000,5.72518,
4621.000,5.77758,
4620.000,5.83022,
4619.000,5.88319,
4618.000,5.93605,
4617.000,5.98851,
4616.000,6.04046,
4615.000,6.09173,
4614.000,6.14224,
4613.000,6.19246,
4612.000,6.24313,
4611.000,6.29422,
4610.000,6.34468,
4609.000,6.39339,
4608.000,6.44004,
4607.000,6.48516,
4606.000,6.52963,
4605.000,6.57407,
4604.000,6.61828,
4603.000,6.66137,
4602.000,6.70273,
4601.000,6.74278,
4600.000,6.78216,
4599.000,6.82064,
4598.000,6.85732,
4597.000,6.89182,
4596.000,6.92474,
4595.000,6.95675,
4594.000,6.98793,
4593.000,7.01787,
4592.000,7.04604,
4591.000,7.07187,
4590.000,7.09505,
4589.000,7.11574,
4588.000,7.13407,
4587.000,7.14972,
4586.000,7.16225,
4585.000,7.17186,
4584.000,7.17937,
4583.000,7.18531,
4582.000,7.18985,
4581.000,7.19308,
4580.000,7.19498,
4579.000,7.19505,
4578.000,7.19269,
4577.000,7.18795,
4576.000,7.18146,
4575.000,7.17369,
4574.000,7.16461,
4573.000,7.15403,
4572.000,7.14171,
4571.000,7.12732,
4570.000,7.11065,
4569.000,7.0919,
4568.000,7.0714,
4567.000,7.04918,
4566.000,7.02528,
4565.000,7.00012,
4564.000,6.97425,
4563.000,6.9476,
4562.000,6.91963,
4561.000,6.89007,
4560.000,6.85907,
4559.000,6.82683,
4558.000,6.79349,
4557.000,6.75921,
4556.000,6.72411,
4555.000,6.68809,
4554.000,6.65116,
4553.000,6.6138,
4552.000,6.57658,
4551.000,6.5395,
4550.000,6.50211,
4549.000,6.46404,
4548.000,6.42521,
4547.000,6.38569,
4546.000,6.34577,
4545.000,6.30584,
4544.000,6.26589,
4543.000,6.22534,
4542.000,6.18378,
4541.000,6.14172,
4540.000,6.10013,
4539.000,6.05954,
4538.000,6.01972,
4537.000,5.98012,
4536.000,5.94,
4535.000,5.89857,
4534.000,5.8556,
4533.000,5.81198,
4532.000,5.76909,
4531.000,5.72782,
4530.000,5.68816,
4529.000,5.64953,
4528.000,5.61099,
4527.000,5.57154,
4526.000,5.53077,
4525.000,5.48929,
4524.000,5.44817,
4523.000,5.40799,
4522.000,5.36856,
4521.000,5.32939,
4520.000,5.28995,
4519.000,5.24987,
4518.000,5.2093,
4517.000,5.16903,
4516.000,5.12974,
4515.000,5.09134,
4514.000,5.05317,
4513.000,5.01483,
4512.000,4.97642,
4511.000,4.93818,
4510.000,4.90032,
4509.000,4.86312,
4508.000,4.82673,
4507.000,4.79086,
4506.000,4.75502,
4505.000,4.71903,
4504.000,4.68299,
4503.000,4.6469,
4502.000,4.61057,
4501.000,4.57382,
4500.000,4.53662,
4499.000,4.49913,
4498.000,4.46175,
4497.000,4.42511,
4496.000,4.38955,
4495.000,4.35482,
4494.000,4.32044,
4493.000,4.28622,
4492.000,4.2522,
4491.000,4.21832,
4490.000,4.18444,
4489.000,4.15056,
4488.000,4.11674,
4487.000,4.08292,
4486.000,4.04921,
4485.000,4.01609,
4484.000,3.9841,
4483.000,3.95309,
4482.000,3.92221,
4481.000,3.89057,
4480.000,3.85797,
4479.000,3.82501,
4478.000,3.79264,
4477.000,3.76149,
4476.000,3.7313,
4475.000,3.70126,
4474.000,3.67085,
4473.000,3.64035,
4472.000,3.61034,
4471.000,3.5809,
4470.000,3.55151,
4469.000,3.52167,
4468.000,3.49143,
4467.000,3.46132,
4466.000,3.43182,
4465.000,3.40293,
4464.000,3.37407,
4463.000,3.34456,
4462.000,3.31437,
4461.000,3.28442,
4460.000,3.25577,
4459.000,3.22882,
4458.000,3.20291,
4457.000,3.17686,
4456.000,3.14969,
4455.000,3.12117,
4454.000,3.09187,
4453.000,3.06274,
4452.000,3.03439,
4451.000,3.007,
4450.000,2.98054,
4449.000,2.95496,
4448.000,2.9299,
4447.000,2.9047,
4446.000,2.879,
4445.000,2.85304,
4444.000,2.82723,
4443.000,2.80164,
4442.000,2.77616,
4441.000,2.75084,
4440.000,2.72583,
4439.000,2.70111,
4438.000,2.6764,
4437.000,2.65139,
4436.000,2.62604,
4435.000,2.60061,
4434.000,2.57557,
4433.000,2.55126,
4432.000,2.52744,
4431.000,2.50359,
4430.000,2.47958,
4429.000,2.45581,
4428.000,2.43259,
4427.000,2.40966,
4426.000,2.38666,
4425.000,2.36367,
4424.000,2.34103,
4423.000,2.3188,
4422.000,2.29668,
4421.000,2.27454,
4420.000,2.25241,
4419.000,2.2302,
4418.000,2.20765,
4417.000,2.18474,
4416.000,2.16181,
4415.000,2.13933,
4414.000,2.11761,
4413.000,2.09676,
4412.000,2.07668,
4411.000,2.05712,
4410.000,2.03765,
4409.000,2.01783,
4408.000,1.99743,
4407.000,1.97656,
4406.000,1.95596,
4405.000,1.93656,
4404.000,1.91858,
4403.000,1.90098,
4402.000,1.88225,
4401.000,1.86162,
4400.000,1.83962,
4399.000,1.8175,
4398.000,1.79629,
4397.000,1.77637,
4396.000,1.75752,
4395.000,1.73913,
4394.000,1.72079,
4393.000,1.70253,
4392.000,1.68478,
4391.000,1.66771,
4390.000,1.65099,
4389.000,1.63398,
4388.000,1.61617,
4387.000,1.59759,
4386.000,1.57889,
4385.000,1.56109,
4384.000,1.54481,
4383.000,1.52974,
4382.000,1.51481,
4381.000,1.49902,
4380.000,1.48212,
4379.000,1.46457,
4378.000,1.44714,
4377.000,1.43041,
4376.000,1.4145,
4375.000,1.39909,
4374.000,1.3838,
4373.000,1.36862,
4372.000,1.35393,
4371.000,1.3401,
4370.000,1.32697,
4369.000,1.31396,
4368.000,1.30041,
4367.000,1.28611,
4366.000,1.27153,
4365.000,1.25754,
4364.000,1.24473,
4363.000,1.23289,
4362.000,1.22116,
4361.000,1.20878,
4360.000,1.19578,
4359.000,1.18282,
4358.000,1.17062,
4357.000,1.15947,
4356.000,1.14915,
4355.000,1.13902,
4354.000,1.12832,
4353.000,1.1166,
4352.000,1.10399,
4351.000,1.09119,
4350.000,1.07901,
4349.000,1.06781,
4348.000,1.05724,
4347.000,1.04661,
4346.000,1.03546,
4345.000,1.02399,
4344.000,1.01283,
4343.000,1.00239,
4342.000,0.992413,
4341.000,0.982282,
4340.000,0.97176,
4339.000,0.961307,
4338.000,0.951578,
4337.000,0.942715,
4336.000,0.934202,
4335.000,0.925403,
4334.000,0.916148,
4333.000,0.906741,
4332.000,0.897495,
4331.000,0.888373,
4330.000,0.879134,
4329.000,0.86981,
4328.000,0.860874,
4327.000,0.852878,
4326.000,0.845898,
4325.000,0.839443,
4324.000,0.832907,
4323.000,0.825985,
4322.000,0.818612,
4321.000,0.810676,
4320.000,0.802094,
4319.000,0.793233,
4318.000,0.784996,
4317.000,0.778206,
4316.000,0.772874,
4315.000,0.768257,
4314.000,0.763591,
4313.000,0.758647,
4312.000,0.75356,
4311.000,0.748287,
4310.000,0.74246,
4309.000,0.735812,
4308.000,0.728663,
4307.000,0.721868,
4306.000,0.716179,
4305.000,0.71163,
4304.000,0.707515,
4303.000,0.703019,
4302.000,0.697908,
4301.000,0.692673,
4300.000,0.688078,
4299.000,0.684528,
4298.000,0.681713,
4297.000,0.678753,
4296.000,0.674781,
4295.000,0.669626,
4294.000,0.664057,
4293.000,0.659214,
4292.000,0.655698,
4291.000,0.653107,
4290.000,0.650487,
4289.000,0.647199,
4288.000,0.643379,
4287.000,0.639634,
4286.000,0.636336,
4285.000,0.63321,
4284.000,0.629587,
4283.000,0.625109,
4282.000,0.620207,
4281.000,0.615831,
4280.000,0.612673,
4279.000,0.61061,
4278.000,0.608868,
4277.000,0.606698,
4276.000,0.603905,
4275.000,0.600857,
4274.000,0.598052,
4273.000,0.595686,
4272.000,0.593606,
4271.000,0.591612,
4270.000,0.589663,
4269.000,0.587705,
4268.000,0.585462,
4267.000,0.582694,
4266.000,0.579698,
4265.000,0.577273,
4264.000,0.575975,
4263.000,0.575469,
4262.000,0.574863,
4261.000,0.57366,
4260.000,0.572195,
4259.000,0.571142,
4258.000,0.570732,
4257.000,0.570494,
4256.000,0.569686,
4255.000,0.56794,
4254.000,0.565555,
4253.000,0.563204,
4252.000,0.561363,
4251.000,0.559944,
4250.000,0.55851,
4249.000,0.556781,
4248.000,0.55491,
4247.000,0.553262,
4246.000,0.552042,
4245.000,0.551155,
4244.000,0.550379,
4243.000,0.549542,
4242.000,0.548482,
4241.000,0.546918,
4240.000,0.544642,
4239.000,0.541953,
4238.000,0.539781,
4237.000,0.539049,
4236.000,0.539769,
4235.000,0.540926,
4234.000,0.54137,
4233.000,0.540799,
4232.000,0.539798,
4231.000,0.539067,
4230.000,0.538796,
4229.000,0.538732,
4228.000,0.538618,
4227.000,0.53846,
4226.000,0.53841,
4225.000,0.538502,
4224.000,0.538524,
4223.000,0.538193,
4222.000,0.537463,
4221.000,0.536611,
4220.000,0.535998,
4219.000,0.535835,
4218.000,0.536198,
4217.000,0.537136,
4216.000,0.538602,
4215.000,0.540255,
4214.000,0.541485,
4213.000,0.541727,
4212.000,0.540804,
4211.000,0.539086,
4210.000,0.537408,
4209.000,0.536676,
4208.000,0.537261,
4207.000,0.538672,
4206.000,0.539945,
4205.000,0.540523,
4204.000,0.540697,
4203.000,0.541144,
4202.000,0.542165,
4201.000,0.543469,
4200.000,0.544582,
4199.000,0.545292,
4198.000,0.545716,
4197.000,0.546102,
4196.000,0.546739,
4195.000,0.547861,
4194.000,0.549429,
4193.000,0.550896,
4192.000,0.5515,
4191.000,0.551046,
4190.000,0.5504,
4189.000,0.550888,
4188.000,0.553035,
4187.000,0.555997,
4186.000,0.558353,
4185.000,0.559382,
4184.000,0.559465,
4183.000,0.559434,
4182.000,0.559821,
4181.000,0.560748,
4180.000,0.562209,
4179.000,0.564166,
4178.000,0.566413,
4177.000,0.568586,
4176.000,0.570427,
4175.000,0.572026,
4174.000,0.573735,
4173.000,0.575808,
4172.000,0.578132,
4171.000,0.580402,
4170.000,0.582467,
4169.000,0.584425,
4168.000,0.586402,
4167.000,0.588421,
4166.000,0.590531,
4165.000,0.592909,
4164.000,0.595635,
4163.000,0.598437,
4162.000,0.600901,
4161.000,0.602965,
4160.000,0.60501,
4159.000,0.607394,
4158.000,0.610056,
4157.000,0.612684,
4156.000,0.615184,
4155.000,0.617814,
4154.000,0.620933,
4153.000,0.624682,
4152.000,0.628835,
4151.000,0.632896,
4150.000,0.636375,
4149.000,0.639133,
4148.000,0.641527,
4147.000,0.64416,
4146.000,0.647375,
4145.000,0.650941,
4144.000,0.654337,
4143.000,0.657368,
4142.000,0.660533,
4141.000,0.664671,
4140.000,0.670137,
4139.000,0.676317,
4138.000,0.682039,
4137.000,0.686531,
4136.000,0.690027,
4135.000,0.693492,
4134.000,0.697774,
4133.000,0.702926,
4132.000,0.708231,
4131.000,0.712865,
4130.000,0.716585,
4129.000,0.719904,
4128.000,0.723631,
4127.000,0.728327,
4126.000,0.734123,
4125.000,0.740834,
4124.000,0.748073,
4123.000,0.755297,
4122.000,0.761934,
4121.000,0.767619,
4120.000,0.772382,
4119.000,0.7767,
4118.000,0.781342,
4117.000,0.787007,
4116.000,0.793881,
4115.000,0.80153,
4114.000,0.809324,
4113.000,0.816927,
4112.000,0.824339,
4111.000,0.831564,
4110.000,0.838467,
4109.000,0.844994,
4108.000,0.851322,
4107.000,0.857641,
4106.000,0.863942,
4105.000,0.870196,
4104.000,0.876671,
4103.000,0.883905,
4102.000,0.892295,
4101.000,0.901759,
4100.000,0.911799,
4099.000,0.921789,
4098.000,0.931237,
4097.000,0.939896,
4096.000,0.947801,
4095.000,0.9553,
4094.000,0.962993,
4093.000,0.971446,
4092.000,0.980831,
4091.000,0.99081,
4090.000,1.00082,
4089.000,1.01056,
4088.000,1.02018,
4087.000,1.03003,
4086.000,1.04034,
4085.000,1.05096,
4084.000,1.06164,
4083.000,1.07226,
4082.000,1.08297,
4081.000,1.09394,
4080.000,1.10512,
4079.000,1.11636,
4078.000,1.12769,
4077.000,1.13947,
4076.000,1.15211,
4075.000,1.16557,
4074.000,1.17931,
4073.000,1.1925,
4072.000,1.20461,
4071.000,1.2158,
4070.000,1.22704,
4069.000,1.23951,
4068.000,1.25375,
4067.000,1.26925,
4066.000,1.28487,
4065.000,1.29976,
4064.000,1.3138,
4063.000,1.32743,
4062.000,1.3412,
4061.000,1.35557,
4060.000,1.37068,
4059.000,1.38629,
4058.000,1.40196,
4057.000,1.41765,
4056.000,1.43385,
4055.000,1.45104,
4054.000,1.46903,
4053.000,1.48708,
4052.000,1.50464,
4051.000,1.52185,
4050.000,1.53907,
4049.000,1.55631,
4048.000,1.5733,
4047.000,1.59007,
4046.000,1.6072,
4045.000,1.62527,
4044.000,1.64425,
4043.000,1.66368,
4042.000,1.68339,
4041.000,1.70373,
4040.000,1.72506,
4039.000,1.74709,
4038.000,1.76897,
4037.000,1.79009,
4036.000,1.81056,
4035.000,1.83106,
4034.000,1.85221,
4033.000,1.8743,
4032.000,1.89732,
4031.000,1.9211,
4030.000,1.94543,
4029.000,1.97014,
4028.000,1.99515,
4027.000,2.02048,
4026.000,2.04612,
4025.000,2.0718,
4024.000,2.09717,
4023.000,2.1223,
4022.000,2.14785,
4021.000,2.17462,
4020.000,2.20258,
4019.000,2.23076,
4018.000,2.25816,
4017.000,2.28484,
4016.000,2.31191,
4015.000,2.3404,
4014.000,2.37031,
4013.000,2.40076,
4012.000,2.43098,
4011.000,2.46098,
4010.000,2.49133,
4009.000,2.5226,
4008.000,2.55502,
4007.000,2.58851,
4006.000,2.62282,
4005.000,2.65765,
4004.000,2.6927,
4003.000,2.72775,
4002.000,2.7627,
4001.000,2.79755,
4000.000,2.83239,
3999.000,2.86741,
3998.000,2.90301,
3997.000,2.93964,
3996.000,2.97761,
3995.000,3.01687,
3994.000,3.05699,
3993.000,3.09742,
3992.000,3.13779,
3991.000,3.178,
3990.000,3.21812,
3989.000,3.25823,
3988.000,3.29836,
3987.000,3.33863,
3986.000,3.37907,
3985.000,3.41961,
3984.000,3.46021,
3983.000,3.50108,
3982.000,3.5427,
3981.000,3.58535,
3980.000,3.62865,
3979.000,3.67183,
3978.000,3.71438,
3977.000,3.75647,
3976.000,3.79875,
3975.000,3.84163,
3974.000,3.88506,
3973.000,3.9286,
3972.000,3.97181,
3971.000,4.01446,
3970.000,4.05663,
3969.000,4.09861,
3968.000,4.14068,
3967.000,4.18282,
3966.000,4.22483,
3965.000,4.26663,
3964.000,4.30833,
3963.000,4.3498,
3962.000,4.39035,
3961.000,4.42922,
3960.000,4.46634,
3959.000,4.50245,
3958.000,4.53816,
3957.000,4.57336,
3956.000,4.60751,
3955.000,4.64042,
3954.000,4.67244,
3953.000,4.70408,
3952.000,4.73563,
3951.000,4.76719,
3950.000,4.79859,
3949.000,4.82932,
3948.000,4.85881,
3947.000,4.88691,
3946.000,4.91388,
3945.000,4.93995,
3944.000,4.96498,
3943.000,4.98864,
3942.000,5.01077,
3941.000,5.03148,
3940.000,5.05106,
3939.000,5.06956,
3938.000,5.08649,
3937.000,5.10106,
3936.000,5.11298,
3935.000,5.12299,
3934.000,5.13221,
3933.000,5.14095,
3932.000,5.14828,
3931.000,5.15302,
3930.000,5.15502,
3929.000,5.15526,
3928.000,5.15464,
3927.000,5.15305,
3926.000,5.14954,
3925.000,5.14323,
3924.000,5.13411,
3923.000,5.123,
3922.000,5.11098,
3921.000,5.09857,
3920.000,5.0854,
3919.000,5.07046,
3918.000,5.05296,
3917.000,5.03291,
3916.000,5.01083,
3915.000,4.98716,
3914.000,4.96214,
3913.000,4.9362,
3912.000,4.90993,
3911.000,4.88362,
3910.000,4.85714,
3909.000,4.83026,
3908.000,4.80297,
3907.000,4.77525,
3906.000,4.7466,
3905.000,4.71621,
3904.000,4.68338,
3903.000,4.64801,
3902.000,4.61077,
3901.000,4.57298,
3900.000,4.53613,
3899.000,4.50099,
3898.000,4.467,
3897.000,4.43311,
3896.000,4.39913,
3895.000,4.36577,
3894.000,4.33325,
3893.000,4.30047,
3892.000,4.26591,
3891.000,4.22915,
3890.000,4.19114,
3889.000,4.15333,
3888.000,4.11692,
3887.000,4.08232,
3886.000,4.04845,
3885.000,4.0134,
3884.000,3.97617,
3883.000,3.93797,
3882.000,3.90167,
3881.000,3.86918,
3880.000,3.83941,
3879.000,3.8096,
3878.000,3.77805,
3877.000,3.74519,
3876.000,3.71247,
3875.000,3.68032,
3874.000,3.64761,
3873.000,3.61314,
3872.000,3.57721,
3871.000,3.54182,
3870.000,3.50878,
3869.000,3.47752,
3868.000,3.44573,
3867.000,3.41248,
3866.000,3.37978,
3865.000,3.34988,
3864.000,3.32218,
3863.000,3.2942,
3862.000,3.26451,
3861.000,3.23402,
3860.000,3.20441,
3859.000,3.17586,
3858.000,3.14692,
3857.000,3.11602,
3856.000,3.08244,
3855.000,3.04683,
3854.000,3.01132,
3853.000,2.9782,
3852.000,2.9474,
3851.000,2.91764,
3850.000,2.89044,
3849.000,2.86836,
3848.000,2.85015,
3847.000,2.83167,
3846.000,2.80993,
3845.000,2.78462,
3844.000,2.75737,
3843.000,2.72999,
3842.000,2.70308,
3841.000,2.67604,
3840.000,2.64843,
3839.000,2.6208,
3838.000,2.59413,
3837.000,2.56873,
3836.000,2.54394,
3835.000,2.51915,
3834.000,2.49454,
3833.000,2.47052,
3832.000,2.44695,
3831.000,2.42327,
3830.000,2.39895,
3829.000,2.37394,
3828.000,2.34899,
3827.000,2.32519,
3826.000,2.30273,
3825.000,2.28043,
3824.000,2.25669,
3823.000,2.23124,
3822.000,2.20554,
3821.000,2.18149,
3820.000,2.15913,
3819.000,2.13635,
3818.000,2.11193,
3817.000,2.08737,
3816.000,2.06484,
3815.000,2.04459,
3814.000,2.02454,
3813.000,2.00296,
3812.000,1.98076,
3811.000,1.95932,
3810.000,1.938,
3809.000,1.91539,
3808.000,1.89204,
3807.000,1.87019,
3806.000,1.85069,
3805.000,1.83129,
3804.000,1.80958,
3803.000,1.78627,
3802.000,1.7644,
3801.000,1.74612,
3800.000,1.73015,
3799.000,1.71325,
3798.000,1.69437,
3797.000,1.67539,
3796.000,1.6577,
3795.000,1.64045,
3794.000,1.62186,
3793.000,1.6014,
3792.000,1.58053,
3791.000,1.56099,
3790.000,1.54315,
3789.000,1.52608,
3788.000,1.50888,
3787.000,1.49142,
3786.000,1.47392,
3785.000,1.4563,
3784.000,1.43833,
3783.000,1.42006,
3782.000,1.40183,
3781.000,1.38409,
3780.000,1.36706,
3779.000,1.35057,
3778.000,1.33419,
3777.000,1.31761,
3776.000,1.30101,
3775.000,1.28469,
3774.000,1.26849,
3773.000,1.25197,
3772.000,1.2352,
3771.000,1.21906,
3770.000,1.20431,
3769.000,1.19053,
3768.000,1.17639,
3767.000,1.16118,
3766.000,1.14562,
3765.000,1.13075,
3764.000,1.11658,
3763.000,1.10214,
3762.000,1.08666,
3761.000,1.07055,
3760.000,1.05494,
3759.000,1.04061,
3758.000,1.02727,
3757.000,1.01386,
3756.000,0.99944,
3755.000,0.983864,
3754.000,0.967766,
3753.000,0.952173,
3752.000,0.93782,
3751.000,0.924727,
3750.000,0.912333,
3749.000,0.899933,
3748.000,0.886995,
3747.000,0.873342,
3746.000,0.859516,
3745.000,0.846889,
3744.000,0.836564,
3743.000,0.827411,
3742.000,0.816723,
3741.000,0.80379,
3740.000,0.790363,
3739.000,0.777664,
3738.000,0.765481,
3737.000,0.753519,
3736.000,0.74217,
3735.000,0.731872,
3734.000,0.722336,
3733.000,0.713022,
3732.000,0.703797,
3731.000,0.694555,
3730.000,0.684746,
3729.000,0.67401,
3728.000,0.662951,
3727.000,0.652665,
3726.000,0.643586,
3725.000,0.635137,
3724.000,0.62656,
3723.000,0.617776,
3722.000,0.609199,
3721.000,0.601132,
3720.000,0.593535,
3719.000,0.58612,
3718.000,0.578557,
3717.000,0.570774,
3716.000,0.56314,
3715.000,0.556251,
3714.000,0.550393,
3713.000,0.545201,
3712.000,0.539832,
3711.000,0.533525,
3710.000,0.526196,
3709.000,0.518557,
3708.000,0.511594,
3707.000,0.50568,
3706.000,0.500262,
3705.000,0.494599,
3704.000,0.488463,
3703.000,0.482158,
3702.000,0.475997,
3701.000,0.470162,
3700.000,0.4649,
3699.000,0.460423,
3698.000,0.456546,
3697.000,0.452656,
3696.000,0.448209,
3695.000,0.443134,
3694.000,0.437787,
3693.000,0.432631,
3692.000,0.42804,
3691.000,0.424123,
3690.000,0.420622,
3689.000,0.416984,
3688.000,0.412754,
3687.000,0.407885,
3686.000,0.402772,
3685.000,0.398087,
3684.000,0.394426,
3683.000,0.3919,
3682.000,0.389918,
3681.000,0.387596,
3680.000,0.384456,
3679.000,0.380822,
3678.000,0.377459,
3677.000,0.374873,
3676.000,0.372887,
3675.000,0.370749,
3674.000,0.367902,
3673.000,0.364719,
3672.000,0.362241,
3671.000,0.360956,
3670.000,0.360023,
3669.000,0.357944,
3668.000,0.354083,
3667.000,0.349332,
3666.000,0.345151,
3665.000,0.342182,
3664.000,0.33999,
3663.000,0.337853,
3662.000,0.335556,
3661.000,0.333437,
3660.000,0.331837,
3659.000,0.330762,
3658.000,0.330071,
3657.000,0.329715,
3656.000,0.329487,
3655.000,0.328776,
3654.000,0.326994,
3653.000,0.324239,
3652.000,0.321212,
3651.000,0.318595,
3650.000,0.316708,
3649.000,0.315481,
3648.000,0.314494,
3647.000,0.313232,
3646.000,0.311573,
3645.000,0.309961,
3644.000,0.308945,
3643.000,0.308557,
3642.000,0.308297,
3641.000,0.307705,
3640.000,0.306792,
3639.000,0.305832,
3638.000,0.304933,
3637.000,0.303998,
3636.000,0.302918,
3635.000,0.30162,
3634.000,0.300069,
3633.000,0.298405,
3632.000,0.296969,
3631.000,0.296044,
3630.000,0.295571,
3629.000,0.29514,
3628.000,0.294273,
3627.000,0.292752,
3626.000,0.290859,
3625.000,0.28926,
3624.000,0.288454,
3623.000,0.288328,
3622.000,0.28832,
3621.000,0.287931,
3620.000,0.287013,
3619.000,0.285605,
3618.000,0.283791,
3617.000,0.28192,
3616.000,0.280639,
3615.000,0.280353,
3614.000,0.28077,
3613.000,0.281235,
3612.000,0.281445,
3611.000,0.281562,
3610.000,0.28169,
3609.000,0.281564,
3608.000,0.280872,
3607.000,0.279631,
3606.000,0.278172,
3605.000,0.276891,
3604.000,0.276073,
3603.000,0.275788,
3602.000,0.275756,
3601.000,0.275447,
3600.000,0.274478,
3599.000,0.273022,
3598.000,0.271737,
3597.000,0.27119,
3596.000,0.271308,
3595.000,0.271451,
3594.000,0.271145,
3593.000,0.270655,
3592.000,0.270632,
3591.000,0.271258,
3590.000,0.272053,
3589.000,0.272458,
3588.000,0.272381,
3587.000,0.271987,
3586.000,0.271278,
3585.000,0.27022,
3584.000,0.269066,
3583.000,0.268183,
3582.000,0.267626,
3581.000,0.267207,
3580.000,0.266913,
3579.000,0.267007,
3578.000,0.267631,
3577.000,0.268562,
3576.000,0.269479,
3575.000,0.270254,
3574.000,0.270895,
3573.000,0.2713,
3572.000,0.271329,
3571.000,0.271045,
3570.000,0.270795,
3569.000,0.270941,
3568.000,0.271491,
3567.000,0.272015,
3566.000,0.272055,
3565.000,0.271644,
3564.000,0.271274,
3563.000,0.271333,
3562.000,0.271702,
3561.000,0.271988,
3560.000,0.272025,
3559.000,0.27201,
3558.000,0.272187,
3557.000,0.272518,
3556.000,0.272736,
3555.000,0.272718,
3554.000,0.272737,
3553.000,0.273218,
3552.000,0.274187,
3551.000,0.275068,
3550.000,0.275209,
3549.000,0.274612,
3548.000,0.273901,
3547.000,0.273579,
3546.000,0.273538,
3545.000,0.273471,
3544.000,0.273474,
3543.000,0.273943,
3542.000,0.274985,
3541.000,0.276298,
3540.000,0.277583,
3539.000,0.278818,
3538.000,0.280061,
3537.000,0.281227,
3536.000,0.282134,
3535.000,0.28266,
3534.000,0.282766,
3533.000,0.282486,
3532.000,0.28203,
3531.000,0.281839,
3530.000,0.282386,
3529.000,0.283822,
3528.000,0.285797,
3527.000,0.287683,
3526.000,0.289046,
3525.000,0.289928,
3524.000,0.290659,
3523.000,0.291386,
3522.000,0.291917,
3521.000,0.29205,
3520.000,0.291941,
3519.000,0.292008,
3518.000,0.292542,
3517.000,0.293518,
3516.000,0.294747,
3515.000,0.296051,
3514.000,0.297273,
3513.000,0.2983,
3512.000,0.299195,
3511.000,0.300202,
3510.000,0.301484,
3509.000,0.302865,
3508.000,0.304022,
3507.000,0.304952,
3506.000,0.306088,
3505.000,0.307788,
3504.000,0.309806,
3503.000,0.311495,
3502.000,0.312572,
3501.000,0.313495,
3500.000,0.314896,
3499.000,0.316836,
3498.000,0.318781,
3497.000,0.320241,
3496.000,0.321221,
3495.000,0.322092,
3494.000,0.323232,
3493.000,0.324823,
3492.000,0.32682,
3491.000,0.328985,
3490.000,0.331044,
3489.000,0.33285,
3488.000,0.334398,
3487.000,0.33574,
3486.000,0.336985,
3485.000,0.338381,
3484.000,0.340214,
3483.000,0.342585,
3482.000,0.345349,
3481.000,0.348229,
3480.000,0.350909,
3479.000,0.353114,
3478.000,0.354813,
3477.000,0.356361,
3476.000,0.358241,
3475.000,0.360596,
3474.000,0.363171,
3473.000,0.365684,
3472.000,0.368056,
3471.000,0.370305,
3470.000,0.372481,
3469.000,0.37481,
3468.000,0.377609,
3467.000,0.380848,
3466.000,0.384031,
3465.000,0.386718,
3464.000,0.389073,
3463.000,0.391703,
3462.000,0.39505,
3461.000,0.39903,
3460.000,0.403187,
3459.000,0.407117,
3458.000,0.41083,
3457.000,0.414768,
3456.000,0.419308,
3455.000,0.424209,
3454.000,0.428768,
3453.000,0.432623,
3452.000,0.436135,
3451.000,0.439784,
3450.000,0.443521,
3449.000,0.447024,
3448.000,0.450386,
3447.000,0.45409,
3446.000,0.45837,
3445.000,0.463029,
3444.000,0.467964,
3443.000,0.473408,
3442.000,0.479429,
3441.000,0.485511,
3440.000,0.490932,
3439.000,0.495487,
3438.000,0.499649,
3437.000,0.504093,
3436.000,0.50926,
3435.000,0.515258,
3434.000,0.521901,
3433.000,0.528728,
3432.000,0.535153,
3431.000,0.540813,
3430.000,0.545816,
3429.000,0.550601,
3428.000,0.555531,
3427.000,0.560703,
3426.000,0.5661,
3425.000,0.571748,
3424.000,0.577631,
3423.000,0.583589,
3422.000,0.589446,
3421.000,0.595217,
3420.000,0.601026,
3419.000,0.606901,
3418.000,0.612812,
3417.000,0.618807,
3416.000,0.624859,
3415.000,0.630612,
3414.000,0.635608,
3413.000,0.639873,
3412.000,0.644013,
3411.000,0.648594,
3410.000,0.653689,
3409.000,0.659151,
3408.000,0.665025,
3407.000,0.671371,
3406.000,0.677895,
3405.000,0.684143,
3404.000,0.690003,
3403.000,0.695741,
3402.000,0.701569,
3401.000,0.707533,
3400.000,0.713842,
3399.000,0.720984,
3398.000,0.729346,
3397.000,0.738877,
3396.000,0.74924,
3395.000,0.760116,
3394.000,0.771224,
3393.000,0.782254,
3392.000,0.793069,
3391.000,0.803995,
3390.000,0.8157,
3389.000,0.828579,
3388.000,0.842279,
3387.000,0.855906,
3386.000,0.868784,
3385.000,0.881058,
3384.000,0.893476,
3383.000,0.906611,
3382.000,0.920361,
3381.000,0.934211,
3380.000,0.947861,
3379.000,0.961491,
3378.000,0.975525,
3377.000,0.990303,
3376.000,1.00598,
3375.000,1.02254,
3374.000,1.03977,
3373.000,1.05727,
3372.000,1.07443,
3371.000,1.09082,
3370.000,1.10645,
3369.000,1.12201,
3368.000,1.1384,
3367.000,1.15595,
3366.000,1.17411,
3365.000,1.19206,
3364.000,1.20949,
3363.000,1.22676,
3362.000,1.2444,
3361.000,1.2626,
3360.000,1.28138,
3359.000,1.30073,
3358.000,1.32059,
3357.000,1.3408,
3356.000,1.36127,
3355.000,1.38204,
3354.000,1.40316,
3353.000,1.42449,
3352.000,1.44594,
3351.000,1.46749,
3350.000,1.48917,
3349.000,1.5108,
3348.000,1.53229,
3347.000,1.554,
3346.000,1.57659,
3345.000,1.60039,
3344.000,1.625,
3343.000,1.64959,
3342.000,1.67371,
3341.000,1.69767,
3340.000,1.72209,
3339.000,1.74729,
3338.000,1.77304,
3337.000,1.79891,
3336.000,1.82475,
3335.000,1.85077,
3334.000,1.87723,
3333.000,1.90408,
3332.000,1.93098,
3331.000,1.95761,
3330.000,1.98404,
3329.000,2.01074,
3328.000,2.03827,
3327.000,2.06681,
3326.000,2.09604,
3325.000,2.12543,
3324.000,2.15478,
3323.000,2.18419,
3322.000,2.2137,
3321.000,2.24313,
3320.000,2.27226,
3319.000,2.30114,
3318.000,2.33008,
3317.000,2.35923,
3316.000,2.38846,
3315.000,2.41745,
3314.000,2.44591,
3313.000,2.47368,
3312.000,2.50087,
3311.000,2.52789,
3310.000,2.55517,
3309.000,2.58274,
3308.000,2.61012,
3307.000,2.63667,
3306.000,2.66214,
3305.000,2.68677,
3304.000,2.71101,
3303.000,2.73516,
3302.000,2.75911,
3301.000,2.78236,
3300.000,2.80432,
3299.000,2.8247,
3298.000,2.84376,
3297.000,2.86206,
3296.000,2.87986,
3295.000,2.89695,
3294.000,2.91277,
3293.000,2.92702,
3292.000,2.93972,
3291.000,2.95096,
3290.000,2.96068,
3289.000,2.96886,
3288.000,2.97587,
3287.000,2.98223,
3286.000,2.98797,
3285.000,2.99251,
3284.000,2.99524,
3283.000,2.99627,
3282.000,2.99621,
3281.000,2.9954,
3280.000,2.99357,
3279.000,2.99023,
3278.000,2.98513,
3277.000,2.97836,
3276.000,2.97026,
3275.000,2.9613,
3274.000,2.95185,
3273.000,2.94195,
3272.000,2.93124,
3271.000,2.91945,
3270.000,2.90659,
3269.000,2.89276,
3268.000,2.87792,
3267.000,2.86197,
3266.000,2.84502,
3265.000,2.82737,
3264.000,2.80921,
3263.000,2.79058,
3262.000,2.77151,
3261.000,2.75217,
3260.000,2.73282,
3259.000,2.7137,
3258.000,2.69479,
3257.000,2.67563,
3256.000,2.65553,
3255.000,2.63415,
3254.000,2.61186,
3253.000,2.58956,
3252.000,2.56782,
3251.000,2.54653,
3250.000,2.52523,
3249.000,2.50368,
3248.000,2.48196,
3247.000,2.46021,
3246.000,2.43846,
3245.000,2.41678,
3244.000,2.39534,
3243.000,2.37415,
3242.000,2.35298,
3241.000,2.33154,
3240.000,2.30977,
3239.000,2.28786,
3238.000,2.26604,
3237.000,2.24451,
3236.000,2.22335,
3235.000,2.20253,
3234.000,2.18182,
3233.000,2.16089,
3232.000,2.13955,
3231.000,2.11779,
3230.000,2.0958,
3229.000,2.07388,
3228.000,2.05243,
3227.000,2.0317,
3226.000,2.01173,
3225.000,1.99225,
3224.000,1.97279,
3223.000,1.95282,
3222.000,1.93206,
3221.000,1.91082,
3220.000,1.88992,
3219.000,1.86985,
3218.000,1.85023,
3217.000,1.83025,
3216.000,1.80988,
3215.000,1.79006,
3214.000,1.7716,
3213.000,1.75419,
3212.000,1.73675,
3211.000,1.71856,
3210.000,1.69975,
3209.000,1.68074,
3208.000,1.66163,
3207.000,1.64239,
3206.000,1.62338,
3205.000,1.60514,
3204.000,1.58779,
3203.000,1.57065,
3202.000,1.55291,
3201.000,1.5345,
3200.000,1.51615,
3199.000,1.49859,
3198.000,1.48173,
3197.000,1.46483,
3196.000,1.44726,
3195.000,1.42906,
3194.000,1.41085,
3193.000,1.39331,
3192.000,1.37667,
3191.000,1.36043,
3190.000,1.34383,
3189.000,1.3266,
3188.000,1.30928,
3187.000,1.2925,
3186.000,1.27627,
3185.000,1.26026,
3184.000,1.24448,
3183.000,1.22934,
3182.000,1.21478,
3181.000,1.20002,
3180.000,1.1844,
3179.000,1.16815,
3178.000,1.15207,
3177.000,1.13672,
3176.000,1.12204,
3175.000,1.10771,
3174.000,1.09338,
3173.000,1.07877,
3172.000,1.06377,
3171.000,1.04867,
3170.000,1.0339,
3169.000,1.01964,
3168.000,1.00582,
3167.000,0.99226,
3166.000,0.978892,
3165.000,0.965632,
3164.000,0.952355,
3163.000,0.938996,
3162.000,0.925613,
3161.000,0.912324,
3160.000,0.899214,
3159.000,0.886219,
3158.000,0.873047,
3157.000,0.859371,
3156.000,0.845269,
3155.000,0.831431,
3154.000,0.818643,
3153.000,0.806993,
3152.000,0.795713,
3151.000,0.783888,
3150.000,0.771193,
3149.000,0.757957,
3148.000,0.744758,
3147.000,0.732159,
3146.000,0.720579,
3145.000,0.710104,
3144.000,0.700286,
3143.000,0.690331,
3142.000,0.679654,
3141.000,0.66825,
3140.000,0.656571,
3139.000,0.645131,
3138.000,0.634233,
3137.000,0.623869,
3136.000,0.613773,
3135.000,0.603622,
3134.000,0.59336,
3133.000,0.583259,
3132.000,0.573583,
3131.000,0.564215,
3130.000,0.554794,
3129.000,0.545206,
3128.000,0.535728,
3127.000,0.526635,
3126.000,0.517825,
3125.000,0.508972,
3124.000,0.499956,
3123.000,0.491004,
3122.000,0.482486,
3121.000,0.474655,
3120.000,0.467504,
3119.000,0.460712,
3118.000,0.453763,
3117.000,0.446284,
3116.000,0.438369,
3115.000,0.43047,
3114.000,0.422961,
3113.000,0.415854,
3112.000,0.408975,
3111.000,0.402265,
3110.000,0.395813,
3109.000,0.38967,
3108.000,0.383718,
3107.000,0.377779,
3106.000,0.371814,
3105.000,0.365991,
3104.000,0.360535,
3103.000,0.355495,
3102.000,0.350702,
3101.000,0.345967,
3100.000,0.341274,
3099.000,0.33671,
3098.000,0.332207,
3097.000,0.327508,
3096.000,0.322483,
3095.000,0.317421,
3094.000,0.312858,
3093.000,0.309037,
3092.000,0.305617,
3091.000,0.301997,
3090.000,0.297904,
3089.000,0.293557,
3088.000,0.289299,
3087.000,0.285247,
3086.000,0.281405,
3085.000,0.277928,
3084.000,0.275009,
3083.000,0.272494,
3082.000,0.26988,
3081.000,0.266794,
3080.000,0.263324,
3079.000,0.2598,
3078.000,0.256414,
3077.000,0.253217,
3076.000,0.250331,
3075.000,0.247938,
3074.000,0.246047,
3073.000,0.244425,
3072.000,0.242716,
3071.000,0.240558,
3070.000,0.237696,
3069.000,0.234207,
3068.000,0.2306,
3067.000,0.227505,
3066.000,0.225215,
3065.000,0.223599,
3064.000,0.222379,
3063.000,0.221254,
3062.000,0.219848,
3061.000,0.217896,
3060.000,0.215586,
3059.000,0.213456,
3058.000,0.211784,
3057.000,0.210305,
3056.000,0.208697,
3055.000,0.207076,
3054.000,0.205743,
3053.000,0.204612,
3052.000,0.20326,
3051.000,0.201472,
3050.000,0.199409,
3049.000,0.197236,
3048.000,0.194929,
3047.000,0.192564,
3046.000,0.190516,
3045.000,0.189143,
3044.000,0.188374,
3043.000,0.187739,
3042.000,0.186705,
3041.000,0.184945,
3040.000,0.182472,
3039.000,0.179721,
3038.000,0.17735,
3037.000,0.175733,
3036.000,0.174628,
3035.000,0.173439,
3034.000,0.171789,
3033.000,0.169792,
3032.000,0.167885,
3031.000,0.166493,
3030.000,0.165768,
3029.000,0.165447,
3028.000,0.165013,
3027.000,0.164114,
3026.000,0.162836,
3025.000,0.161493,
3024.000,0.160183,
3023.000,0.158766,
3022.000,0.15727,
3021.000,0.156082,
3020.000,0.15557,
3019.000,0.155609,
3018.000,0.155615,
3017.000,0.155046,
3016.000,0.153868,
3015.000,0.152615,
3014.000,0.151984,
3013.000,0.152265,
3012.000,0.153019,
3011.000,0.153364,
3010.000,0.152656,
3009.000,0.15093,
3008.000,0.148783,
3007.000,0.146943,
3006.000,0.145886,
3005.000,0.145652,
3004.000,0.145837,
3003.000,0.145893,
3002.000,0.145549,
3001.000,0.144947,
3000.000,0.144398,
2999.000,0.144065,
2998.000,0.143917,
2997.000,0.143823,
2996.000,0.143593,
2995.000,0.143055,
2994.000,0.142266,
2993.000,0.141607,
2992.000,0.141491,
2991.000,0.141918,
2990.000,0.142435,
2989.000,0.142599,
2988.000,0.142427,
2987.000,0.142341,
2986.000,0.142704,
2985.000,0.143436,
2984.000,0.144082,
2983.000,0.144271,
2982.000,0.144061,
2981.000,0.143792,
2980.000,0.1436,
2979.000,0.14322,
2978.000,0.142351,
2977.000,0.141081,
2976.000,0.139796,
2975.000,0.138652,
2974.000,0.137297,
2973.000,0.135248,
2972.000,0.132517,
2971.000,0.129799,
2970.000,0.127952,
2969.000,0.127209,
2968.000,0.126891,
2967.000,0.125971,
2966.000,0.123937,
2965.000,0.121068,
2964.000,0.117884,
2963.000,0.114605,
2962.000,0.11126,
2961.000,0.108086,
2960.000,0.105464,
2959.000,0.103442,
2958.000,0.101535,
2957.000,0.0991157,
2956.000,0.095923,
2955.000,0.0922038,
2954.000,0.0884953,
2953.000,0.0853176,
2952.000,0.08294,
2951.000,0.0812845,
2950.000,0.0800274,
2949.000,0.0788149,
2948.000,0.0773905,
2947.000,0.075613,
2946.000,0.0734769,
2945.000,0.0711291,
2944.000,0.0687622,
2943.000,0.0664735,
2942.000,0.0642824,
2941.000,0.0622763,
2940.000,0.0606523,
2939.000,0.0596317,
2938.000,0.0593769,
2937.000,0.0599148,
2936.000,0.0610031,
2935.000,0.062116,
2934.000,0.0627797,
2933.000,0.0630457,
2932.000,0.0635531,
2931.000,0.0650051,
2930.000,0.0675832,
2929.000,0.0708507,
2928.000,0.0741536,
2927.000,0.0771498,
2926.000,0.0799902,
2925.000,0.0830369,
2924.000,0.0864538,
2923.000,0.0900749,
2922.000,0.0936329,
2921.000,0.0969857,
2920.000,0.100136,
2919.000,0.103124,
2918.000,0.105924,
2917.000,0.108417,
2916.000,0.110438,
2915.000,0.111924,
2914.000,0.113012,
2913.000,0.113868,
2912.000,0.11436,
2911.000,0.114142,
2910.000,0.113253,
2909.000,0.11246,
2908.000,0.112681,
2907.000,0.114064,
2906.000,0.115917,
2905.000,0.117489,
2904.000,0.118505,
2903.000,0.118931,
2902.000,0.1187,
2901.000,0.11795,
2900.000,0.117254,
2899.000,0.11722,
2898.000,0.1179,
2897.000,0.118839,
2896.000,0.119649,
2895.000,0.120306,
2894.000,0.120939,
2893.000,0.12156,
2892.000,0.12203,
2891.000,0.122183,
2890.000,0.12195,
2889.000,0.121454,
2888.000,0.120955,
2887.000,0.12068,
2886.000,0.120678,
2885.000,0.120893,
2884.000,0.12123,
2883.000,0.121486,
2882.000,0.121355,
2881.000,0.120733,
2880.000,0.119939,
2879.000,0.119411,
2878.000,0.1192,
2877.000,0.118936,
2876.000,0.118272,
2875.000,0.117155,
2874.000,0.115662,
2873.000,0.113836,
2872.000,0.111824,
2871.000,0.109913,
2870.000,0.108169,
2869.000,0.106164,
2868.000,0.103441,
2867.000,0.100276,
2866.000,0.0976678,
2865.000,0.0963689,
2864.000,0.0961397,
2863.000,0.0961387,
2862.000,0.095847,
2861.000,0.0954196,
2860.000,0.095254,
2859.000,0.0955325,
2858.000,0.0962642,
2857.000,0.0975297,
2856.000,0.0994901,
2855.000,0.102189,
2854.000,0.105449,
2853.000,0.108914,
2852.000,0.112182,
2851.000,0.11499,
2850.000,0.117328,
2849.000,0.119285,
2848.000,0.120738,
2847.000,0.121373,
2846.000,0.121142,
2845.000,0.120567,
2844.000,0.120388,
2843.000,0.12095,
2842.000,0.122024,
2841.000,0.123185,
2840.000,0.124219,
2839.000,0.125157,
2838.000,0.126086,
2837.000,0.127056,
2836.000,0.128064,
2835.000,0.128979,
2834.000,0.129531,
2833.000,0.12956,
2832.000,0.12937,
2831.000,0.129648,
2830.000,0.130848,
2829.000,0.132654,
2828.000,0.1342,
2827.000,0.134832,
2826.000,0.134543,
2825.000,0.133725,
2824.000,0.132765,
2823.000,0.132074,
2822.000,0.132209,
2821.000,0.133519,
2820.000,0.135613,
2819.000,0.137518,
2818.000,0.138564,
2817.000,0.138947,
2816.000,0.139346,
2815.000,0.140214,
2814.000,0.141559,
2813.000,0.143144,
2812.000,0.144625,
2811.000,0.145641,
2810.000,0.146109,
2809.000,0.14643,
2808.000,0.147153,
2807.000,0.148394,
2806.000,0.149751,
2805.000,0.150806,
2804.000,0.15155,
2803.000,0.152327,
2802.000,0.153487,
2801.000,0.155058,
2800.000,0.156644,
2799.000,0.157716,
2798.000,0.15823,
2797.000,0.158877,
2796.000,0.160383,
2795.000,0.162525,
2794.000,0.164191,
2793.000,0.164667,
2792.000,0.164562,
2791.000,0.165147,
2790.000,0.166924,
2789.000,0.169136,
2788.000,0.170729,
2787.000,0.171487,
2786.000,0.172088,
2785.000,0.173215,
2784.000,0.174806,
2783.000,0.176263,
2782.000,0.177279,
2781.000,0.17831,
2780.000,0.180093,
2779.000,0.182751,
2778.000,0.185554,
2777.000,0.18763,
2776.000,0.188838,
2775.000,0.189827,
2774.000,0.191305,
2773.000,0.193397,
2772.000,0.1957,
2771.000,0.197842,
2770.000,0.199849,
2769.000,0.201979,
2768.000,0.20433,
2767.000,0.206748,
2766.000,0.20908,
2765.000,0.211309,
2764.000,0.213424,
2763.000,0.215349,
2762.000,0.217169,
2761.000,0.219236,
2760.000,0.22181,
2759.000,0.224671,
2758.000,0.227322,
2757.000,0.229583,
2756.000,0.231768,
2755.000,0.234212,
2754.000,0.236868,
2753.000,0.239466,
2752.000,0.241933,
2751.000,0.244525,
2750.000,0.247634,
2749.000,0.251481,
2748.000,0.255931,
2747.000,0.260523,
2746.000,0.264819,
2745.000,0.268765,
2744.000,0.272612,
2743.000,0.276485,
2742.000,0.280222,
2741.000,0.283687,
2740.000,0.287053,
2739.000,0.290623,
2738.000,0.294556,
2737.000,0.298895,
2736.000,0.3037,
2735.000,0.308941,
2734.000,0.314346,
2733.000,0.319622,
2732.000,0.324794,
2731.000,0.330109,
2730.000,0.335593,
2729.000,0.34091,
2728.000,0.345749,
2727.000,0.350221,
2726.000,0.354777,
2725.000,0.359819,
2724.000,0.365499,
2723.000,0.371782,
2722.000,0.378527,
2721.000,0.385497,
2720.000,0.392428,
2719.000,0.39923,
2718.000,0.406086,
2717.000,0.413225,
2716.000,0.420578,
2715.000,0.427788,
2714.000,0.434632,
2713.000,0.441337,
2712.000,0.448393,
2711.000,0.456162,
2710.000,0.464765,
2709.000,0.474136,
2708.000,0.483925,
2707.000,0.493453,
2706.000,0.502158,
2705.000,0.510176,
2704.000,0.518229,
2703.000,0.526822,
2702.000,0.535794,
2701.000,0.544772,
2700.000,0.55376,
2699.000,0.563076,
2698.000,0.57295,
2697.000,0.583482,
2696.000,0.594795,
2695.000,0.606872,
2694.000,0.619264,
2693.000,0.631293,
2692.000,0.642648,
2691.000,0.65364,
2690.000,0.664835,
2689.000,0.67655,
2688.000,0.688662,
2687.000,0.700774,
2686.000,0.712564,
2685.000,0.724092,
2684.000,0.735676,
2683.000,0.747321,
2682.000,0.758431,
2681.000,0.768371,
2680.000,0.777222,
2679.000,0.785677,
2678.000,0.794192,
2677.000,0.802595,
2676.000,0.810653,
2675.000,0.818687,
2674.000,0.827378,
2673.000,0.837106,
2672.000,0.847701,
2671.000,0.858769,
2670.000,0.870173,
2669.000,0.882227,
2668.000,0.895539,
2667.000,0.91067,
2666.000,0.92779,
2665.000,0.946688,
2664.000,0.967005,
2663.000,0.988403,
2662.000,1.01062,
2661.000,1.03343,
2660.000,1.05663,
2659.000,1.07995,
2658.000,1.10302,
2657.000,1.12563,
2656.000,1.14785,
2655.000,1.16978,
2654.000,1.19118,
2653.000,1.21175,
2652.000,1.23182,
2651.000,1.25228,
2650.000,1.27383,
2649.000,1.29631,
2648.000,1.31921,
2647.000,1.34249,
2646.000,1.36664,
2645.000,1.39212,
2644.000,1.41889,
2643.000,1.44655,
2642.000,1.47465,
2641.000,1.50289,
2640.000,1.53113,
2639.000,1.5594,
2638.000,1.58788,
2637.000,1.61679,
2636.000,1.6461,
2635.000,1.67541,
2634.000,1.70398,
2633.000,1.73128,
2632.000,1.75722,
2631.000,1.7819,
2630.000,1.80528,
2629.000,1.8273,
2628.000,1.84843,
2627.000,1.86925,
2626.000,1.88959,
2625.000,1.90841,
2624.000,1.92472,
2623.000,1.93842,
2622.000,1.95008,
2621.000,1.96024,
2620.000,1.96937,
2619.000,1.97782,
2618.000,1.98563,
2617.000,1.99235,
2616.000,1.99752,
2615.000,2.00122,
2614.000,2.00388,
2613.000,2.00579,
2612.000,2.00704,
2611.000,2.00791,
2610.000,2.00878,
2609.000,2.00971,
2608.000,2.01045,
2607.000,2.01089,
2606.000,2.01119,
2605.000,2.01136,
2604.000,2.01092,
2603.000,2.00918,
2602.000,2.00576,
2601.000,2.00069,
2600.000,1.99422,
2599.000,1.98645,
2598.000,1.97733,
2597.000,1.96677,
2596.000,1.9548,
2595.000,1.94157,
2594.000,1.9272,
2593.000,1.9117,
2592.000,1.895,
2591.000,1.87715,
2590.000,1.85849,
2589.000,1.8396,
2588.000,1.82086,
2587.000,1.80222,
2586.000,1.78338,
2585.000,1.76438,
2584.000,1.74559,
2583.000,1.72728,
2582.000,1.70915,
2581.000,1.6907,
2580.000,1.67168,
2579.000,1.65211,
2578.000,1.63203,
2577.000,1.61155,
2576.000,1.591,
2575.000,1.57074,
2574.000,1.55093,
2573.000,1.5317,
2572.000,1.51334,
2571.000,1.49593,
2570.000,1.47901,
2569.000,1.46194,
2568.000,1.44453,
2567.000,1.42709,
2566.000,1.40988,
2565.000,1.39287,
2564.000,1.37596,
2563.000,1.35917,
2562.000,1.34243,
2561.000,1.32569,
2560.000,1.30905,
2559.000,1.29266,
2558.000,1.27638,
2557.000,1.25986,
2556.000,1.2431,
2555.000,1.22656,
2554.000,1.21066,
2553.000,1.19527,
2552.000,1.17993,
2551.000,1.16424,
2550.000,1.14799,
2549.000,1.13117,
2548.000,1.11399,
2547.000,1.09679,
2546.000,1.07989,
2545.000,1.06341,
2544.000,1.04736,
2543.000,1.03176,
2542.000,1.01664,
2541.000,1.00197,
2540.000,0.987531,
2539.000,0.972979,
2538.000,0.958086,
2537.000,0.943039,
2536.000,0.928354,
2535.000,0.914398,
2534.000,0.901075,
2533.000,0.888071,
2532.000,0.875224,
2531.000,0.86253,
2530.000,0.849946,
2529.000,0.83735,
2528.000,0.824621,
2527.000,0.811654,
2526.000,0.798451,
2525.000,0.78535,
2524.000,0.7729,
2523.000,0.761274,
2522.000,0.749978,
2521.000,0.738407,
2520.000,0.726582,
2519.000,0.715044,
2518.000,0.704188,
2517.000,0.693941,
2516.000,0.683926,
2515.000,0.673595,
2514.000,0.662374,
2513.000,0.65013,
2512.000,0.637536,
2511.000,0.625599,
2510.000,0.614722,
2509.000,0.604444,
2508.000,0.594054,
2507.000,0.58321,
2506.000,0.572005,
2505.000,0.56079,
2504.000,0.550013,
2503.000,0.539907,
2502.000,0.530227,
2501.000,0.520472,
2500.000,0.510443,
2499.000,0.500381,
2498.000,0.490582,
2497.000,0.481109,
2496.000,0.471896,
2495.000,0.462873,
2494.000,0.453875,
2493.000,0.444723,
2492.000,0.435485,
2491.000,0.426495,
2490.000,0.418016,
2489.000,0.410032,
2488.000,0.402364,
2487.000,0.394829,
2486.000,0.387251,
2485.000,0.379564,
2484.000,0.371912,
2483.000,0.364461,
2482.000,0.357122,
2481.000,0.349681,
2480.000,0.342222,
2479.000,0.335111,
2478.000,0.328469,
2477.000,0.321966,
2476.000,0.315282,
2475.000,0.308567,
2474.000,0.302258,
2473.000,0.296593,
2472.000,0.291409,
2471.000,0.2863,
2470.000,0.28088,
2469.000,0.275063,
2468.000,0.269193,
2467.000,0.263796,
2466.000,0.259112,
2465.000,0.254944,
2464.000,0.250932,
2463.000,0.246809,
2462.000,0.242422,
2461.000,0.237796,
2460.000,0.233249,
2459.000,0.22918,
2458.000,0.2256,
2457.000,0.222136,
2456.000,0.218591,
2455.000,0.215201,
2454.000,0.212137,
2453.000,0.209056,
2452.000,0.20555,
2451.000,0.201827,
2450.000,0.198547,
2449.000,0.19598,
2448.000,0.193645,
2447.000,0.190888,
2446.000,0.187561,
2445.000,0.184053,
2444.000,0.180869,
2443.000,0.178262,
2442.000,0.176158,
2441.000,0.174352,
2440.000,0.172722,
2439.000,0.17121,
2438.000,0.169635,
2437.000,0.167696,
2436.000,0.165232,
2435.000,0.162401,
2434.000,0.159479,
2433.000,0.15657,
2432.000,0.153687,
2431.000,0.151026,
2430.000,0.148889,
2429.000,0.14731,
2428.000,0.145986,
2427.000,0.144694,
2426.000,0.143565,
2425.000,0.142803,
2424.000,0.142234,
2423.000,0.141319,
2422.000,0.139633,
2421.000,0.137275,
2420.000,0.134814,
2419.000,0.132847,
2418.000,0.131531,
2417.000,0.130466,
2416.000,0.129107,
2415.000,0.127345,
2414.000,0.12565,
2413.000,0.124539,
2412.000,0.123971,
2411.000,0.123404,
2410.000,0.122427,
2409.000,0.121144,
2408.000,0.119887,
2407.000,0.118743,
2406.000,0.117561,
2405.000,0.116351,
2404.000,0.115408,
2403.000,0.114932,
2402.000,0.114644,
2401.000,0.113961,
2400.000,0.112599,
2399.000,0.110932,
2398.000,0.109655,
2397.000,0.109057,
2396.000,0.108693,
2395.000,0.107851,
2394.000,0.106303,
2393.000,0.104499,
2392.000,0.102981,
2391.000,0.101834,
2390.000,0.100858,
2389.000,0.100097,
2388.000,0.099861,
2387.000,0.100169,
2386.000,0.100482,
2385.000,0.100196,
2384.000,0.0992336,
2383.000,0.097967,
2382.000,0.0967249,
2381.000,0.0955875,
2380.000,0.0945532,
2379.000,0.0936299,
2378.000,0.0927447,
2377.000,0.0917768,
2376.000,0.0907726,
2375.000,0.0899815,
2374.000,0.0895735,
2373.000,0.089408,
2372.000,0.0892001,
2371.000,0.0888085,
2370.000,0.0882353,
2369.000,0.0874343,
2368.000,0.0862697,
2367.000,0.0846926,
2366.000,0.0829156,
2365.000,0.0813625,
2364.000,0.0803978,
2363.000,0.0801172,
2362.000,0.0803843,
2361.000,0.0808871,
2360.000,0.0811289,
2359.000,0.0808568,
2358.000,0.0803762,
2357.000,0.0801805,
2356.000,0.0804199,
2355.000,0.0805359,
2354.000,0.0799301,
2353.000,0.0786692,
2352.000,0.0772506,
2351.000,0.0760551,
2350.000,0.0751242,
2349.000,0.0746445,
2348.000,0.0747274,
2347.000,0.0750453,
2346.000,0.0751205,
2345.000,0.074605,
2344.000,0.073834,
2343.000,0.0733814,
2342.000,0.0734184,
2341.000,0.0735579,
2340.000,0.0733782,
2339.000,0.0731705,
2338.000,0.0731668,
2337.000,0.0731566,
2336.000,0.0727432,
2335.000,0.071959,
2334.000,0.0712117,
2333.000,0.0708139,
2332.000,0.0706186,
2331.000,0.07032,
2330.000,0.0698124,
2329.000,0.069422,
2328.000,0.0694501,
2327.000,0.0696993,
2326.000,0.0697293,
2325.000,0.069214,
2324.000,0.0685818,
2323.000,0.0683733,
2322.000,0.0687248,
2321.000,0.0692018,
2320.000,0.0692366,
2319.000,0.0687454,
2318.000,0.0679332,
2317.000,0.0671724,
2316.000,0.0666849,
2315.000,0.0666108,
2314.000,0.06686,
2313.000,0.067097,
2312.000,0.0669157,
2311.000,0.0661985,
2310.000,0.0653426,
2309.000,0.0649446,
2308.000,0.0653224,
2307.000,0.0661831,
2306.000,0.0669431,
2305.000,0.0671817,
2304.000,0.0668905,
2303.000,0.066228,
2302.000,0.0653008,
2301.000,0.0641782,
2300.000,0.0630241,
2299.000,0.0621222,
2298.000,0.0618013,
2297.000,0.0622508,
2296.000,0.06327,
2295.000,0.0641817,
2294.000,0.0643386,
2293.000,0.0637829,
2292.000,0.0633057,
2291.000,0.0635696,
2290.000,0.0644367,
2289.000,0.0652238,
2288.000,0.065468,
2287.000,0.065179,
2286.000,0.0646102,
2285.000,0.0641303,
2284.000,0.0642521,
2283.000,0.0652569,
2282.000,0.0665964,
2281.000,0.0671317,
2280.000,0.0662534,
2279.000,0.0645206,
2278.000,0.0629743,
2277.000,0.0621637,
2276.000,0.0620242,
2275.000,0.06235,
2274.000,0.0629981,
2273.000,0.0638008,
2272.000,0.0645376,
2271.000,0.0650101,
2270.000,0.0650576,
2269.000,0.0645524,
2268.000,0.0635537,
2267.000,0.0624447,
2266.000,0.0617393,
2265.000,0.0616835,
2264.000,0.0621174,
2263.000,0.0627054,
2262.000,0.0632343,
2261.000,0.0636956,
2260.000,0.064136,
2259.000,0.0644553,
2258.000,0.0644327,
2257.000,0.0640108,
2256.000,0.0634622,
2255.000,0.0631216,
2254.000,0.0629787,
2253.000,0.0627661,
2252.000,0.0624266,
2251.000,0.062231,
2250.000,0.0623126,
2249.000,0.0623751,
2248.000,0.0620987,
2247.000,0.0616643,
2246.000,0.0615704,
2245.000,0.061992,
2244.000,0.0625932,
2243.000,0.062964,
2242.000,0.0630222,
2241.000,0.0629384,
2240.000,0.0628644,
2239.000,0.0628562,
2238.000,0.0629768,
2237.000,0.0633586,
2236.000,0.0641035,
2235.000,0.0651235,
2234.000,0.0661237,
2233.000,0.0668098,
2232.000,0.0671071,
2231.000,0.0670807,
2230.000,0.0666945,
2229.000,0.0658741,
2228.000,0.0648273,
2227.000,0.0640317,
2226.000,0.0637857,
2225.000,0.0639696,
2224.000,0.0643208,
2223.000,0.0647364,
2222.000,0.0651767,
2221.000,0.0654655,
2220.000,0.0654309,
2219.000,0.0651901,
2218.000,0.0650787,
2217.000,0.0653534,
2216.000,0.0660593,
2215.000,0.067011,
2214.000,0.0677394,
2213.000,0.0677002,
2212.000,0.0668544,
2211.000,0.065913,
2210.000,0.0656532,
2209.000,0.066051,
2208.000,0.0664389,
2207.000,0.0664741,
2206.000,0.0665326,
2205.000,0.0670772,
2204.000,0.0680039,
2203.000,0.0688337,
2202.000,0.0692887,
2201.000,0.0694641,
2200.000,0.069623,
2199.000,0.0699855,
2198.000,0.0705446,
2197.000,0.0709566,
2196.000,0.0707943,
2195.000,0.0700916,
2194.000,0.0694718,
2193.000,0.0695513,
2192.000,0.0703464,
2191.000,0.0714001,
2190.000,0.0723147,
2189.000,0.0729737,
2188.000,0.0733955,
2187.000,0.0736406,
2186.000,0.0738753,
2185.000,0.0742922,
2184.000,0.0748931,
2183.000,0.0754799,
2182.000,0.0759077,
2181.000,0.0762523,
2180.000,0.0766919,
2179.000,0.0772991,
2178.000,0.077946,
2177.000,0.0783731,
2176.000,0.0784179,
2175.000,0.0781889,
2174.000,0.0779314,
2173.000,0.0777688,
2172.000,0.0777133,
2171.000,0.077918,
2170.000,0.0786505,
2169.000,0.0798483,
2168.000,0.080904,
2167.000,0.0811947,
2166.000,0.0807962,
2165.000,0.0804285,
2164.000,0.0806941,
2163.000,0.0815607,
2162.000,0.0826047,
2161.000,0.0835427,
2160.000,0.0843705,
2159.000,0.0851253,
2158.000,0.0857218,
2157.000,0.0860555,
2156.000,0.0861867,
2155.000,0.0863541,
2154.000,0.0867767,
2153.000,0.0874589,
2152.000,0.0882322,
2151.000,0.0889646,
2150.000,0.0896424,
2149.000,0.0902444,
2148.000,0.0906505,
2147.000,0.0907711,
2146.000,0.0907471,
2145.000,0.0909225,
2144.000,0.0915954,
2143.000,0.0928325,
2142.000,0.0944531,
2141.000,0.0960708,
2140.000,0.0972519,
2139.000,0.0978381,
2138.000,0.0981223,
2137.000,0.0985754,
2136.000,0.0993828,
2135.000,0.100321,
2134.000,0.101067,
2133.000,0.101555,
2132.000,0.102057,
2131.000,0.10295,
2130.000,0.104353,
2129.000,0.105953,
2128.000,0.107296,
2127.000,0.108331,
2126.000,0.109516,
2125.000,0.111214,
2124.000,0.113115,
2123.000,0.114522,
2122.000,0.115199,
2121.000,0.115668,
2120.000,0.116598,
2119.000,0.118127,
2118.000,0.119881,
2117.000,0.121441,
2116.000,0.122632,
2115.000,0.123559,
2114.000,0.124515,
2113.000,0.125723,
2112.000,0.127063,
2111.000,0.128215,
2110.000,0.129135,
2109.000,0.130205,
2108.000,0.131768,
2107.000,0.13371,
2106.000,0.13563,
2105.000,0.137285,
2104.000,0.138718,
2103.000,0.140129,
2102.000,0.141872,
2101.000,0.144386,
2100.000,0.14778,
2099.000,0.151543,
2098.000,0.154957,
2097.000,0.157747,
2096.000,0.160089,
2095.000,0.162065,
2094.000,0.163516,
2093.000,0.164522,
2092.000,0.165603,
2091.000,0.167254,
2090.000,0.169511,
2089.000,0.172167,
2088.000,0.175136,
2087.000,0.178352,
2086.000,0.181549,
2085.000,0.18448,
2084.000,0.187283,
2083.000,0.190345,
2082.000,0.19382,
2081.000,0.197518,
2080.000,0.201235,
2079.000,0.204937,
2078.000,0.208628,
2077.000,0.212272,
2076.000,0.215915,
2075.000,0.219713,
2074.000,0.223742,
2073.000,0.227944,
2072.000,0.232282,
2071.000,0.23683,
2070.000,0.241565,
2069.000,0.246201,
2068.000,0.250396,
2067.000,0.254095,
2066.000,0.257619,
2065.000,0.261403,
2064.000,0.265656,
2063.000,0.27027,
2062.000,0.275057,
2061.000,0.280068,
2060.000,0.285564,
2059.000,0.291616,
2058.000,0.297883,
2057.000,0.303957,
2056.000,0.309863,
2055.000,0.315994,
2054.000,0.322591,
2053.000,0.32957,
2052.000,0.336862,
2051.000,0.344612,
2050.000,0.352862,
2049.000,0.36127,
2048.000,0.369431,
2047.000,0.377349,
2046.000,0.385405,
2045.000,0.393927,
2044.000,0.40296,
2043.000,0.412396,
2042.000,0.422119,
2041.000,0.431988,
2040.000,0.441863,
2039.000,0.451696,
2038.000,0.461571,
2037.000,0.471652,
2036.000,0.482116,
2035.000,0.493065,
2034.000,0.504414,
2033.000,0.515951,
2032.000,0.527576,
2031.000,0.539407,
2030.000,0.551602,
2029.000,0.564129,
2028.000,0.5768,
2027.000,0.589487,
2026.000,0.602196,
2025.000,0.615026,
2024.000,0.62806,
2023.000,0.641279,
2022.000,0.654558,
2021.000,0.667888,
2020.000,0.681694,
2019.000,0.696634,
2018.000,0.712971,
2017.000,0.730211,
2016.000,0.747469,
2015.000,0.764122,
2014.000,0.779999,
2013.000,0.795196,
2012.000,0.80997,
2011.000,0.824773,
2010.000,0.840127,
2009.000,0.856346,
2008.000,0.873397,
2007.000,0.891012,
2006.000,0.908867,
2005.000,0.926737,
2004.000,0.94444,
2003.000,0.961756,
2002.000,0.978444,
2001.000,0.994495,
2000.000,1.01034,
1999.000,1.0264,
1998.000,1.04275,
1997.000,1.05906,
1996.000,1.07504,
1995.000,1.09069,
1994.000,1.10593,
1993.000,1.12049,
1992.000,1.13415,
1991.000,1.14676,
1990.000,1.15786,
1989.000,1.16682,
1988.000,1.17351,
1987.000,1.17836,
1986.000,1.18178,
1985.000,1.18367,
1984.000,1.18395,
1983.000,1.18304,
1982.000,1.18156,
1981.000,1.17978,
1980.000,1.17754,
1979.000,1.1745,
1978.000,1.17055,
1977.000,1.16582,
1976.000,1.16086,
1975.000,1.15634,
1974.000,1.15243,
1973.000,1.14861,
1972.000,1.1443,
1971.000,1.1394,
1970.000,1.13413,
1969.000,1.1286,
1968.000,1.12276,
1967.000,1.11651,
1966.000,1.10948,
1965.000,1.10109,
1964.000,1.0909,
1963.000,1.07907,
1962.000,1.06632,
1961.000,1.05346,
1960.000,1.04102,
1959.000,1.02894,
1958.000,1.01678,
1957.000,1.00418,
1956.000,0.991192,
1955.000,0.977923,
1954.000,0.964125,
1953.000,0.949535,
1952.000,0.934362,
1951.000,0.91917,
1950.000,0.904237,
1949.000,0.889589,
1948.000,0.875344,
1947.000,0.861681,
1946.000,0.848696,
1945.000,0.836459,
1944.000,0.825169,
1943.000,0.814855,
1942.000,0.804929,
1941.000,0.794445,
1940.000,0.782853,
1939.000,0.77026,
1938.000,0.757036,
1937.000,0.743541,
1936.000,0.73023,
1935.000,0.717623,
1934.000,0.705925,
1933.000,0.694811,
1932.000,0.68366,
1931.000,0.671886,
1930.000,0.6591,
1929.000,0.645502,
1928.000,0.631862,
1927.000,0.61899,
1926.000,0.607281,
1925.000,0.596545,
1924.000,0.586472,
1923.000,0.576642,
1922.000,0.566527,
1921.000,0.555758,
1920.000,0.544298,
1919.000,0.532448,
1918.000,0.520632,
1917.000,0.509172,
1916.000,0.498114,
1915.000,0.486993,
1914.000,0.475193,
1913.000,0.462827,
1912.000,0.450899,
1911.000,0.440308,
1910.000,0.430824,
1909.000,0.42143,
1908.000,0.411545,
1907.000,0.401584,
1906.000,0.392172,
1905.000,0.383129,
1904.000,0.373772,
1903.000,0.363786,
1902.000,0.3537,
1901.000,0.34438,
1900.000,0.336044,
1899.000,0.328146,
1898.000,0.320125,
1897.000,0.311991,
1896.000,0.304196,
1895.000,0.296932,
1894.000,0.289886,
1893.000,0.282706,
1892.000,0.275365,
1891.000,0.268062,
1890.000,0.260955,
1889.000,0.254081,
1888.000,0.247343,
1887.000,0.240481,
1886.000,0.233309,
1885.000,0.226119,
1884.000,0.219594,
1883.000,0.214079,
1882.000,0.209108,
1881.000,0.203899,
1880.000,0.198195,
1879.000,0.192492,
1878.000,0.187454,
1877.000,0.183247,
1876.000,0.179536,
1875.000,0.175848,
1874.000,0.171856,
1873.000,0.167572,
1872.000,0.16337,
1871.000,0.159828,
1870.000,0.157409,
1869.000,0.156014,
1868.000,0.154752,
1867.000,0.152454,
1866.000,0.148558,
1865.000,0.143448,
1864.000,0.138043,
1863.000,0.133195,
1862.000,0.129379,
1861.000,0.126725,
1860.000,0.125011,
1859.000,0.123666,
1858.000,0.122037,
1857.000,0.119788,
1856.000,0.117008,
1855.000,0.11401,
1854.000,0.111136,
1853.000,0.108724,
1852.000,0.106959,
1851.000,0.105647,
1850.000,0.104316,
1849.000,0.102591,
1848.000,0.100574,
1847.000,0.0987366,
1846.000,0.0974082,
1845.000,0.0963854,
1844.000,0.0949667,
1843.000,0.0925963,
1842.000,0.0895861,
1841.000,0.0868703,
1840.000,0.0850499,
1839.000,0.0839049,
1838.000,0.0827272,
1837.000,0.0811399,
1836.000,0.0794971,
1835.000,0.0783004,
1834.000,0.0775652,
1833.000,0.0769531,
1832.000,0.0762614,
1831.000,0.0755613,
1830.000,0.0749231,
1829.000,0.0742465,
1828.000,0.0734661,
1827.000,0.0725759,
1826.000,0.0714069,
1825.000,0.069711,
1824.000,0.0675227,
1823.000,0.0652761,
1822.000,0.0634256,
1821.000,0.0620405,
1820.000,0.0608472,
1819.000,0.0596008,
1818.000,0.0583716,
1817.000,0.057458,
1816.000,0.0570033,
1815.000,0.0567783,
1814.000,0.0564354,
1813.000,0.0558422,
1812.000,0.0550789,
1811.000,0.0542536,
1810.000,0.0534673,
1809.000,0.0529129,
1808.000,0.0526896,
1807.000,0.0525344,
1806.000,0.0520311,
1805.000,0.0510881,
1804.000,0.050125,
1803.000,0.0496321,
1802.000,0.0496251,
1801.000,0.0496647,
1800.000,0.0493101,
1799.000,0.0485275,
1798.000,0.0476247,
1797.000,0.0469252,
1796.000,0.0464993,
1795.000,0.0460983,
1794.000,0.045396,
1793.000,0.0443752,
1792.000,0.0434661,
1791.000,0.0431378,
1790.000,0.0432898,
1789.000,0.043287,
1788.000,0.0426472,
1787.000,0.0415045,
1786.000,0.0403512,
1785.000,0.0394646,
1784.000,0.0386684,
1783.000,0.0376468,
1782.000,0.0364102,
1781.000,0.0352957,
1780.000,0.0346019,
1779.000,0.0344288,
1778.000,0.0347794,
1777.000,0.0355785,
1776.000,0.0364201,
1775.000,0.0366533,
1774.000,0.035951,
1773.000,0.0346077,
1772.000,0.0332393,
1771.000,0.0321458,
1770.000,0.0311593,
1769.000,0.0301966,
1768.000,0.0295402,
1767.000,0.0294587,
1766.000,0.0298042,
1765.000,0.0301494,
1764.000,0.0302065,
1763.000,0.0299333,
1762.000,0.0293763,
1761.000,0.0285527,
1760.000,0.0274068,
1759.000,0.0259243,
1758.000,0.0243907,
1757.000,0.0233824,
1756.000,0.0231609,
1755.000,0.0232134,
1754.000,0.0228088,
1753.000,0.0218612,
1752.000,0.0209138,
1751.000,0.0204027,
1750.000,0.020231,
1749.000,0.0201166,
1748.000,0.019959,
1747.000,0.0197323,
1746.000,0.0194101,
1745.000,0.0190607,
1744.000,0.0188112,
1743.000,0.0186121,
1742.000,0.0182176,
1741.000,0.0175432,
1740.000,0.0168324,
1739.000,0.0164192,
1738.000,0.016454,
1737.000,0.0168156,
1736.000,0.0172213,
1735.000,0.0174,
1734.000,0.0172689,
1733.000,0.0171215,
1732.000,0.0174486,
1731.000,0.0183461,
1730.000,0.0193567,
1729.000,0.0199467,
1728.000,0.0197782,
1727.000,0.0186379,
1726.000,0.0165838,
1725.000,0.01415,
1724.000,0.0120004,
1723.000,0.0102678,
1722.000,0.00858697,
1721.000,0.00684815,
1720.000,0.00550115,
1719.000,0.00469877,
1718.000,0.00408619,
1717.000,0.00333571,
1716.000,0.00251574,
1715.000,0.00140695,
1714.000,0.000485802,
1713.000,0.00090227,
1712.000,0.00125971,
1711.000,0.000720961,
1710.000,0.000954789,
1709.000,0.00202852,
1708.000,0.00273805,
1707.000,0.00343956,
1706.000,0.00439121,
1705.000,0.00526328,
1704.000,0.0065235,
1703.000,0.00889689,
1702.000,0.0128308,
1701.000,0.0197207,
1700.000,0.0310625,
1699.000,0.0454446,
1698.000,0.0603085,
1697.000,0.075143,
1696.000,0.0900763,
1695.000,0.103037,
1694.000,0.110762,
1693.000,0.112331,
1692.000,0.109302,
1691.000,0.103788,
1690.000,0.0973884,
1689.000,0.0909196,
1688.000,0.0848611,
1687.000,0.0796326,
1686.000,0.0753258,
1685.000,0.0715503,
1684.000,0.0677285,
1683.000,0.0636936,
1682.000,0.0597541,
1681.000,0.0559312,
1680.000,0.0523195,
1679.000,0.0495189,
1678.000,0.0478233,
1677.000,0.0468815,
1676.000,0.0462038,
1675.000,0.0455975,
1674.000,0.0451203,
1673.000,0.0447801,
1672.000,0.0444334,
1671.000,0.0439952,
1670.000,0.043507,
1669.000,0.0430036,
1668.000,0.0424769,
1667.000,0.0419128,
1666.000,0.041252,
1665.000,0.0404472,
1664.000,0.0395267,
1663.000,0.0384664,
1662.000,0.0372018,
1661.000,0.0358837,
1660.000,0.0348903,
1659.000,0.0344583,
1658.000,0.0343921,
1657.000,0.0342789,
1656.000,0.0339547,
1655.000,0.0335871,
1654.000,0.0333195,
1653.000,0.032987,
1652.000,0.0325328,
1651.000,0.0322666,
1650.000,0.0321197,
1649.000,0.031841,
1648.000,0.0316555,
1647.000,0.0318148,
1646.000,0.0321858,
1645.000,0.0324518,
1644.000,0.0324505,
1643.000,0.0321117,
1642.000,0.031381,
1641.000,0.0303218,
1640.000,0.0292083,
1639.000,0.0284032,
1638.000,0.0279912,
1637.000,0.0277617,
1636.000,0.0276131,
1635.000,0.0277119,
1634.000,0.0280546,
1633.000,0.0283414,
1632.000,0.0283989,
1631.000,0.0282542,
1630.000,0.0279179,
1629.000,0.0273317,
1628.000,0.026586,
1627.000,0.0259902,
1626.000,0.0257714,
1625.000,0.025913,
1624.000,0.0263698,
1623.000,0.0271396,
1622.000,0.0280447,
1621.000,0.028791,
1620.000,0.0292543,
1619.000,0.029427,
1618.000,0.0291529,
1617.000,0.0282961,
1616.000,0.0273231,
1615.000,0.0270134,
1614.000,0.0273474,
1613.000,0.0276104,
1612.000,0.0274907,
1611.000,0.0273147,
1610.000,0.0273329,
1609.000,0.027266,
1608.000,0.0268136,
1607.000,0.0262585,
1606.000,0.0261453,
1605.000,0.0265274,
1604.000,0.0269027,
1603.000,0.0268237,
1602.000,0.02625,
1601.000,0.0254242,
1600.000,0.0246633,
1599.000,0.0241958,
1598.000,0.0240266,
1597.000,0.0240058,
1596.000,0.0241083,
1595.000,0.0245085,
1594.000,0.0252428,
1593.000,0.0259413,
1592.000,0.0261431,
1591.000,0.0257945,
1590.000,0.0251941,
1589.000,0.0245516,
1588.000,0.0239519,
1587.000,0.0236288,
1586.000,0.0238734,
1585.000,0.0247191,
1584.000,0.0258392,
1583.000,0.0267143,
1582.000,0.0268805,
1581.000,0.0262389,
1580.000,0.025294,
1579.000,0.0248834,
1578.000,0.0254167,
1577.000,0.0263493,
1576.000,0.0267361,
1575.000,0.0264881,
1574.000,0.0263616,
1573.000,0.0266192,
1572.000,0.0268191,
1571.000,0.0266623,
1570.000,0.0263307,
1569.000,0.0261928,
1568.000,0.026311,
1567.000,0.0264334,
1566.000,0.0263953,
1565.000,0.0263006,
1564.000,0.0263606,
1563.000,0.0267047,
1562.000,0.0273176,
1561.000,0.028061,
1560.000,0.0287047,
1559.000,0.0289689,
1558.000,0.0287083,
1557.000,0.0280862,
1556.000,0.0272201,
1555.000,0.0262504,
1554.000,0.0257654,
1553.000,0.0261889,
1552.000,0.0271852,
1551.000,0.0280316,
1550.000,0.0282892,
1549.000,0.0281535,
1548.000,0.0281491,
1547.000,0.0284678,
1546.000,0.0288222,
1545.000,0.0288419,
1544.000,0.0284513,
1543.000,0.0279585,
1542.000,0.0277452,
1541.000,0.0279121,
1540.000,0.0282804,
1539.000,0.0285333,
1538.000,0.0284289,
1537.000,0.0279228,
1536.000,0.0271942,
1535.000,0.0266902,
1534.000,0.0268546,
1533.000,0.0276203,
1532.000,0.0284178,
1531.000,0.0287544,
1530.000,0.0285041,
1529.000,0.0278918,
1528.000,0.0273838,
1527.000,0.0273174,
1526.000,0.0276951,
1525.000,0.0283767,
1524.000,0.0292574,
1523.000,0.0302327,
1522.000,0.0310002,
1521.000,0.0310349,
1520.000,0.0302538,
1519.000,0.0294032,
1518.000,0.0293019,
1517.000,0.0301105,
1516.000,0.0313029,
1515.000,0.0321959,
1514.000,0.0325409,
1513.000,0.0325198,
1512.000,0.0324139,
1511.000,0.0323831,
1510.000,0.0324749,
1509.000,0.0325395,
1508.000,0.0321555,
1507.000,0.0310866,
1506.000,0.0299534,
1505.000,0.029759,
1504.000,0.0305532,
1503.000,0.031591,
1502.000,0.0323162,
1501.000,0.0325008,
1500.000,0.0321759,
1499.000,0.0318232,
1498.000,0.0322333,
1497.000,0.03369,
1496.000,0.0353455,
1495.000,0.0360468,
1494.000,0.035801,
1493.000,0.0355698,
1492.000,0.0359767,
1491.000,0.0368711,
1490.000,0.0377645,
1489.000,0.0383934,
1488.000,0.0388069,
1487.000,0.0391027,
1486.000,0.039353,
1485.000,0.0395661,
1484.000,0.0395437,
1483.000,0.039041,
1482.000,0.03811,
1481.000,0.0372506,
1480.000,0.0370957,
1479.000,0.0378872,
1478.000,0.0393861,
1477.000,0.0410607,
1476.000,0.0422902,
1475.000,0.0426817,
1474.000,0.0423667,
1473.000,0.0420019,
1472.000,0.0423877,
1471.000,0.0437621,
1470.000,0.0455902,
1469.000,0.0472194,
1468.000,0.0483393,
1467.000,0.04882,
1466.000,0.0485812,
1465.000,0.0477314,
1464.000,0.046613,
1463.000,0.04551,
1462.000,0.0444556,
1461.000,0.0436114,
1460.000,0.0435528,
1459.000,0.0448738,
1458.000,0.0474291,
1457.000,0.0499318,
1456.000,0.0508975,
1455.000,0.0500921,
1454.000,0.0480748,
1453.000,0.04505,
1452.000,0.0411105,
1451.000,0.0368715,
1450.000,0.0333206,
1449.000,0.0309419,
1448.000,0.0294248,
1447.000,0.0283904,
1446.000,0.0279354,
1445.000,0.0282649,
1444.000,0.02918,
1443.000,0.0303009,
1442.000,0.0316023,
1441.000,0.0333599,
1440.000,0.0356091,
1439.000,0.038063,
1438.000,0.0405399,
1437.000,0.0430198,
1436.000,0.0450829,
1435.000,0.0458578,
1434.000,0.0450117,
1433.000,0.0432331,
1432.000,0.0414931,
1431.000,0.040258,
1430.000,0.0395268,
1429.000,0.039342,
1428.000,0.0397844,
1427.000,0.0405173,
1426.000,0.0408855,
1425.000,0.0405534,
1424.000,0.0398086,
1423.000,0.0391179,
1422.000,0.0385609,
1421.000,0.0379179,
1420.000,0.0372276,
1419.000,0.0370778,
1418.000,0.0380621,
1417.000,0.0399375,
1416.000,0.0417681,
1415.000,0.042884,
1414.000,0.0433724,
1413.000,0.043806,
1412.000,0.0446385,
1411.000,0.0457412,
1410.000,0.0466104,
1409.000,0.0470824,
1408.000,0.0477029,
1407.000,0.0492524,
1406.000,0.0519493,
1405.000,0.0552491,
1404.000,0.0583285,
1403.000,0.0606246,
1402.000,0.0620315,
1401.000,0.0628724,
1400.000,0.0638098,
1399.000,0.0654881,
1398.000,0.0679442,
1397.000,0.0705095,
1396.000,0.0724545,
1395.000,0.0737006,
1394.000,0.0749015,
1393.000,0.0766893,
1392.000,0.0789396,
1391.000,0.0810483,
1390.000,0.0827439,
1389.000,0.0843137,
1388.000,0.0861379,
1387.000,0.0881659,
1386.000,0.0899301,
1385.000,0.0910483,
1384.000,0.09163,
1383.000,0.0922398,
1382.000,0.0935191,
1381.000,0.0957614,
1380.000,0.0986523,
1379.000,0.101478,
1378.000,0.103764,
1377.000,0.105709,
1376.000,0.107966,
1375.000,0.1111,
1374.000,0.115194,
1373.000,0.119803,
1372.000,0.124339,
1371.000,0.128509,
1370.000,0.132403,
1369.000,0.136108,
1368.000,0.139373,
1367.000,0.141939,
1366.000,0.144146,
1365.000,0.146857,
1364.000,0.150613,
1363.000,0.155168,
1362.000,0.160068,
1361.000,0.165348,
1360.000,0.171196,
1359.000,0.17719,
1358.000,0.18243,
1357.000,0.186374,
1356.000,0.189029,
1355.000,0.190226,
1354.000,0.189003,
1353.000,0.183933,
1352.000,0.174111,
1351.000,0.159873,
1350.000,0.142941,
1349.000,0.125998,
1348.000,0.111858,
1347.000,0.102577,
1346.000,0.0989051,
1345.000,0.100099,
1344.000,0.104018,
1343.000,0.107789,
1342.000,0.108899,
1341.000,0.106115,
1340.000,0.0999305,
1339.000,0.0925924,
1338.000,0.087519,
1337.000,0.0877022,
1336.000,0.0939553,
1335.000,0.104806,
1334.000,0.118129,
1333.000,0.132722,
1332.000,0.148251,
1331.000,0.164217,
1330.000,0.179711,
1329.000,0.194076,
1328.000,0.207032,
1327.000,0.218037,
1326.000,0.226187,
1325.000,0.230833,
1324.000,0.231791,
1323.000,0.228763,
1322.000,0.221191,
1321.000,0.209084,
1320.000,0.193394,
1319.000,0.1754,
1318.000,0.156091,
1317.000,0.136298,
1316.000,0.117112,
1315.000,0.0996705,
1314.000,0.0846955,
1313.000,0.0726767,
1312.000,0.0643768,
1311.000,0.0605379,
1310.000,0.0611557,
1309.000,0.0655633,
1308.000,0.073303,
1307.000,0.0844808,
1306.000,0.0989696,
1305.000,0.115921,
1304.000,0.134221,
1303.000,0.153049,
1302.000,0.172079,
1301.000,0.191287,
1300.000,0.210733,
1299.000,0.230413,
1298.000,0.250152,
1297.000,0.269606,
1296.000,0.288301,
1295.000,0.305712,
1294.000,0.321444,
1293.000,0.335391,
1292.000,0.347442,
1291.000,0.357168,
1290.000,0.36409,
1289.000,0.368214,
1288.000,0.37004,
1287.000,0.369692,
1286.000,0.366445,
1285.000,0.359414,
1284.000,0.348596,
1283.000,0.335175,
1282.000,0.320646,
1281.000,0.305917,
1280.000,0.291327,
1279.000,0.277244,
1278.000,0.264362,
1277.000,0.253385,
1276.000,0.244629,
1275.000,0.237961,
1274.000,0.233011,
1273.000,0.229304,
1272.000,0.226286,
1271.000,0.22334,
1270.000,0.219789,
1269.000,0.215041,
1268.000,0.20906,
1267.000,0.202956,
1266.000,0.198734,
1265.000,0.197915,
1264.000,0.200229,
1263.000,0.20384,
1262.000,0.206866,
1261.000,0.208451,
1260.000,0.208433,
1259.000,0.206591,
1258.000,0.202806,
1257.000,0.19759,
1256.000,0.1918,
1255.000,0.185847,
1254.000,0.17946,
1253.000,0.172289,
1252.000,0.164336,
1251.000,0.155812,
1250.000,0.147061,
1249.000,0.138678,
1248.000,0.131275,
1247.000,0.124854,
1246.000,0.118716,
1245.000,0.11233,
1244.000,0.105982,
1243.000,0.100165,
1242.000,0.0946786,
1241.000,0.0888487,
1240.000,0.0824662,
1239.000,0.0760064,
1238.000,0.069903,
1237.000,0.0640817,
1236.000,0.0583051,
1235.000,0.0525335,
1234.000,0.0469246,
1233.000,0.0418532,
1232.000,0.0378363,
1231.000,0.0351154,
1230.000,0.0332933,
1229.000,0.0316371,
1228.000,0.0296887,
1227.000,0.0273281,
1226.000,0.0244725,
1225.000,0.0213172,
1224.000,0.0189189,
1223.000,0.0187695,
1222.000,0.0214434,
1221.000,0.025991,
1220.000,0.0309426,
1219.000,0.0358398,
1218.000,0.0413665,
1217.000,0.0481999,
1216.000,0.0562604,
1215.000,0.0648063,
1214.000,0.0727322,
1213.000,0.0788263,
1212.000,0.082269,
1211.000,0.0831291,
1210.000,0.0823362,
1209.000,0.0809774,
1208.000,0.0795606,
1207.000,0.0779888,
1206.000,0.0760213,
1205.000,0.0737239,
1204.000,0.0714441,
1203.000,0.0693921,
1202.000,0.0674492,
1201.000,0.0654146,
1200.000,0.0633192,
1199.000,0.0614146,
1198.000,0.0598594,
1197.000,0.0585386,
1196.000,0.0571477,
1195.000,0.0552912,
1194.000,0.052721,
1193.000,0.0496746,
1192.000,0.0468192,
1191.000,0.0446766,
1190.000,0.0431019,
1189.000,0.0416234,
1188.000,0.0401912,
1187.000,0.039113,
1186.000,0.0384219,
1185.000,0.037684,
1184.000,0.0365936,
1183.000,0.0354963,
1182.000,0.0349862,
1181.000,0.0352166,
1180.000,0.035715,
1179.000,0.0358594,
1178.000,0.0352289,
1177.000,0.0337539,
1176.000,0.0320063,
1175.000,0.0308509,
1174.000,0.030506,
1173.000,0.0302964,
1172.000,0.0294892,
1171.000,0.028101,
1170.000,0.0267289,
1169.000,0.0258072,
1168.000,0.0253455,
1167.000,0.0252479,
1166.000,0.0255459,
1165.000,0.0262811,
1164.000,0.0272512,
1163.000,0.0279385,
1162.000,0.0277882,
1161.000,0.0267387,
1160.000,0.0253275,
1159.000,0.0239887,
1158.000,0.0226977,
1157.000,0.0213855,
1156.000,0.0202481,
1155.000,0.0195009,
1154.000,0.0189739,
1153.000,0.0182609,
1152.000,0.0171058,
1151.000,0.0155829,
1150.000,0.0141371,
1149.000,0.0131831,
1148.000,0.0130493,
1147.000,0.0139886,
1146.000,0.0153134,
1145.000,0.0156462,
1144.000,0.0145674,
1143.000,0.0130405,
1142.000,0.0122333,
1141.000,0.0123525,
1140.000,0.0126349,
1139.000,0.012505,
1138.000,0.0119226,
1137.000,0.0109584,
1136.000,0.00997033,
1135.000,0.00982952,
1134.000,0.0105621,
1133.000,0.0106154,
1132.000,0.00921043,
1131.000,0.00733852,
1130.000,0.0064267,
1129.000,0.00712441,
1128.000,0.00913257,
1127.000,0.0113182,
1126.000,0.0123903,
1125.000,0.011925,
1124.000,0.0108233,
1123.000,0.0102854,
1122.000,0.0100899,
1121.000,0.00871359,
1120.000,0.0056378,
1119.000,0.00267424,
1118.000,0.00209147,
1117.000,0.00447549,
1116.000,0.00850555,
1115.000,0.0125775,
1114.000,0.0160072,
1113.000,0.0183494,
1112.000,0.0190317,
1111.000,0.0180386,
1110.000,0.0159154,
1109.000,0.0133752,
1108.000,0.0113595,
1107.000,0.010597,
1106.000,0.0109971,
1105.000,0.0117837,
1104.000,0.0120942,
1103.000,0.0115094,
1102.000,0.0102745,
1101.000,0.00905618,
1100.000,0.00820676,
1099.000,0.00765519,
1098.000,0.00682374,
1097.000,0.00533626,
1096.000,0.00426463,
1095.000,0.00400551,
1094.000,0.00522092,
1093.000,0.00868958,
1092.000,0.0119678,
1091.000,0.0131569,
1090.000,0.0124719,
1089.000,0.0114675,
1088.000,0.0106771,
1087.000,0.00989331,
1086.000,0.00959835,
1085.000,0.00943034,
1084.000,0.00862987,
1083.000,0.00731934,
1082.000,0.00615961,
1081.000,0.00594217,
1080.000,0.0071032,
1079.000,0.00904053,
1078.000,0.0102893,
1077.000,0.00955346,
1076.000,0.00691676,
1075.000,0.00404802,
1074.000,0.00255637,
1073.000,0.00244853,
1072.000,0.00294981,
1071.000,0.00329617,
1070.000,0.00301018,
1069.000,0.00389888,
1068.000,0.00726001,
1067.000,0.0100423,
1066.000,0.0102331,
1065.000,0.00795176,
1064.000,0.00471357,
1063.000,0.00135043,
1062.000,0.00175633,
1061.000,0.00412848,
1060.000,0.00461489,
1059.000,0.00444419,
1058.000,0.00497214,
1057.000,0.00620033,
1056.000,0.00783808,
1055.000,0.00900658,
1054.000,0.00899382,
1053.000,0.00823642,
1052.000,0.00802754,
1051.000,0.00917209,
1050.000,0.0109123,
1049.000,0.0111423,
1048.000,0.0086841,
1047.000,0.00499936,
1046.000,0.00270212,
1045.000,0.00290497,
1044.000,0.00462834,
1043.000,0.00615733,
1042.000,0.00652087,
1041.000,0.00567393,
1040.000,0.00431883,
1039.000,0.00364759,
1038.000,0.00433105,
1037.000,0.00569193,
1036.000,0.00660241,
1035.000,0.00693984,
1034.000,0.0074666,
1033.000,0.0080293,
1032.000,0.00763801,
1031.000,0.0059578,
1030.000,0.00389288,
1029.000,0.00316641,
1028.000,0.00383719,
1027.000,0.00539435,
1026.000,0.00767466,
1025.000,0.00901736,
1024.000,0.00817681,
1023.000,0.00555308,
1022.000,0.00249074,
1021.000,0.000624817,
1020.000,0.00283427,
1019.000,0.00512971,
1018.000,0.00665672,
1017.000,0.00691959,
1016.000,0.00605102,
1015.000,0.00479959,
1014.000,0.00380913,
1013.000,0.00319819,
1012.000,0.00189971,
1011.000,0.000995162,
1010.000,0.00395837,
1009.000,0.00466727,
1008.000,0.00288626,
1007.000,0.000987614,
1006.000,0.00303166,
1005.000,0.00374864,
1004.000,0.00310761,
1003.000,0.00193454,
1002.000,0.00106567,
1001.000,0.000736834,
1000.000,0.000754781,
999.000,0.00100589,
998.000,0.00168778,
997.000,0.00261268,
996.000,0.0028832,
995.000,0.00202881,
994.000,0.000737063,
993.000,0.000536473,
992.000,0.000424328,
991.000,0.00106482,
990.000,0.00249428,
989.000,0.00329403,
988.000,0.00310126,
987.000,0.00247385,
986.000,0.00203283,
985.000,0.00102566,
984.000,0.00114269,
983.000,0.00398297,
982.000,0.00638067,
981.000,0.00762518,
980.000,0.00765874,
979.000,0.00692253,
978.000,0.00576356,
977.000,0.0042015,
976.000,0.00250639,
975.000,0.00145701,
974.000,0.00205419,
973.000,0.00363288,
972.000,0.00518551,
971.000,0.00578963,
970.000,0.00493896,
969.000,0.00316638,
968.000,0.0018541,
967.000,0.00217493,
966.000,0.00300997,
965.000,0.00304187,
964.000,0.00168911,
963.000,0.000439045,
962.000,0.0016145,
961.000,0.000848598,
960.000,0.00302035,
959.000,0.00577698,
958.000,0.0068096,
957.000,0.0062599,
956.000,0.00522143,
955.000,0.00482011,
954.000,0.0052394,
953.000,0.00565918,
952.000,0.00490463,
951.000,0.00257018,
950.000,0.0015429,
949.000,0.00427802,
948.000,0.00503377,
947.000,0.00332475,
946.000,0.00122241,
945.000,0.00299713,
944.000,0.00407296,
943.000,0.00300629,
942.000,0.000728195,
941.000,0.00283176,
940.000,0.00526229,
939.000,0.00631247,
938.000,0.00594641,
937.000,0.00443212,
936.000,0.0033153,
935.000,0.00351933,
934.000,0.00376597,
933.000,0.00478761,
932.000,0.0057779,
931.000,0.00571718,
930.000,0.00537086,
929.000,0.0055642,
928.000,0.00583339,
927.000,0.00521586,
926.000,0.0040327,
925.000,0.00318181,
924.000,0.00359092,
923.000,0.00524668,
922.000,0.00661015,
921.000,0.00709836,
920.000,0.00684955,
919.000,0.00589574,
918.000,0.00422946,
917.000,0.00251536,
916.000,0.00245473,
915.000,0.00360689,
914.000,0.00462636,
913.000,0.00536864,
912.000,0.00557679,
911.000,0.00491907,
910.000,0.00385073,
909.000,0.0033742,
908.000,0.00331879,
907.000,0.00293263,
906.000,0.00223048,
905.000,0.00162131,
904.000,0.00139401,
903.000,0.00200293,
902.000,0.00352491,
901.000,0.00526405,
900.000,0.00659573,
899.000,0.007115,
898.000,0.00655936,
897.000,0.00485734,
896.000,0.00359741,
895.000,0.00410413,
894.000,0.00383502,
893.000,0.00448579,
892.000,0.00748275,
891.000,0.00885116,
890.000,0.00775199,
889.000,0.00564096,
888.000,0.00356235,
887.000,0.00495298,
886.000,0.0100877,
885.000,0.0149367,
884.000,0.0175289,
883.000,0.017385,
882.000,0.0153524,
881.000,0.0127199,
880.000,0.00995843,
879.000,0.00705949,
878.000,0.00483651,
877.000,0.00429129,
876.000,0.00419861,
875.000,0.00490958,
874.000,0.0074215,
873.000,0.00952152,
872.000,0.00982706,
871.000,0.0090901,
870.000,0.00840704,
869.000,0.0078629,
868.000,0.00705403,
867.000,0.00580916,
866.000,0.00396696,
865.000,0.00220016,
864.000,0.00288743,
863.000,0.00476759,
862.000,0.00552515,
861.000,0.00502978,
860.000,0.003886,
859.000,0.00219713,
858.000,0.00118934,
857.000,0.00313737,
856.000,0.00498951,
855.000,0.00569655,
854.000,0.00447478,
853.000,0.00142541,
852.000,0.00273863,
851.000,0.00546889,
850.000,0.00604032,
849.000,0.00464536,
848.000,0.00329954,
847.000,0.00493124,
846.000,0.00768793,
845.000,0.00910988,
844.000,0.00862807,
843.000,0.00685519,
842.000,0.00549538,
841.000,0.00620888,
840.000,0.0074291,
839.000,0.00713476,
838.000,0.00550667,
837.000,0.00307552,
836.000,0.000718899,
835.000,0.00111328,
834.000,0.00281023,
833.000,0.0041844,
832.000,0.00519834,
831.000,0.00522236,
830.000,0.00462747,
829.000,0.00433893,
828.000,0.00427398,
827.000,0.00357328,
826.000,0.00253727,
825.000,0.00313808,
824.000,0.00380466,
823.000,0.00330716,
822.000,0.00253534,
821.000,0.00116532,
820.000,0.00120837,
819.000,0.0033749,
818.000,0.00385037,
817.000,0.00259362,
816.000,0.00237686,
815.000,0.00433643,
814.000,0.00668415,
813.000,0.00792123,
812.000,0.00777945,
811.000,0.00716957,
810.000,0.00685553,
809.000,0.00653419,
808.000,0.00561804,
807.000,0.00388753,
806.000,0.00217654,
805.000,0.00144254,
804.000,0.00164819,
803.000,0.00287052,
802.000,0.00476247,
801.000,0.0065153,
800.000,0.00752349,
799.000,0.0073517,
798.000,0.00606364,
797.000,0.00443544,
796.000,0.00354646,
795.000,0.00394894,
794.000,0.005095,
793.000,0.00568178,
792.000,0.00538468,
791.000,0.0051916,
790.000,0.00510875,
789.000,0.00429687,
788.000,0.0031724,
787.000,0.00299475,
786.000,0.00370482,
785.000,0.00451455,
784.000,0.00541229,
783.000,0.00631007,
782.000,0.00635335,
781.000,0.00492531,
780.000,0.00274792,
779.000,0.00177786,
778.000,0.00284661,
777.000,0.00470651,
776.000,0.00559307,
775.000,0.00455266,
774.000,0.00229284,
773.000,0.000597094,
772.000,0.00126215,
771.000,0.00274518,
770.000,0.00383043,
769.000,0.00349892,
768.000,0.00155961,
767.000,0.00227737,
766.000,0.00282929,
765.000,0.000937765,
764.000,0.00139734,
763.000,0.00154032,
762.000,0.00167683,
761.000,0.00311866,
760.000,0.00319789,
759.000,0.00338964,
758.000,0.0039831,
757.000,0.00390451,
756.000,0.00322587,
755.000,0.0029223,
754.000,0.00461404,
753.000,0.00715242,
752.000,0.00857515,
751.000,0.00861596,
750.000,0.00786972,
749.000,0.00673307,
748.000,0.00520358,
747.000,0.00469569,
746.000,0.00667604,
745.000,0.00820373,
744.000,0.00719817,
743.000,0.00373022,
742.000,0.000876977,
741.000,0.000979312,
740.000,0.00101283,
739.000,0.00302564,
738.000,0.00616804,
737.000,0.00883975,
736.000,0.0110194,
735.000,0.0116095,
734.000,0.0102064,
733.000,0.00810942,
732.000,0.00859386,
731.000,0.0108102,
730.000,0.0112533,
729.000,0.0085096,
728.000,0.0044644,
727.000,0.00393759,
726.000,0.00534986,
725.000,0.00527986,
724.000,0.00356025,
723.000,0.00195303,
722.000,0.00390898,
721.000,0.00665509,
720.000,0.00809768,
719.000,0.0085198,
718.000,0.00862994,
717.000,0.0092764,
716.000,0.0092776,
715.000,0.00749998,
714.000,0.00624135,
713.000,0.00835088,
712.000,0.011403,
711.000,0.0127458,
710.000,0.011699,
709.000,0.00949544,
708.000,0.00633168,
707.000,0.00342388,
706.000,0.00480551,
705.000,0.00673375,
704.000,0.00551888,
703.000,0.00274351,
702.000,0.00114368,
701.000,0.0024384,
700.000,0.00546544,
699.000,0.00836355,
698.000,0.0105175,
697.000,0.0121836,
696.000,0.0129174,
695.000,0.0121861,
694.000,0.0103747,
693.000,0.00803828,
692.000,0.00463958,
691.000,0.00318624,
690.000,0.00615116,
689.000,0.00990924,
688.000,0.0115428,
687.000,0.0102342,
686.000,0.00479229,
685.000,0.00226602,
684.000,0.00647773,
683.000,0.0090917,
682.000,0.0067727,
681.000,0.00240941,
680.000,0.00578266,
679.000,0.0116248,
678.000,0.0131289,
677.000,0.011779,
676.000,0.00852357,
675.000,0.00610614,
674.000,0.006334,
673.000,0.00806777,
672.000,0.00916543,
671.000,0.00991645,
670.000,0.0106708,
669.000,0.0113548,
668.000,0.0115773,
667.000,0.0106549,
666.000,0.00814095,
665.000,0.00551735,
664.000,0.00416009,
663.000,0.0039621,
662.000,0.0047713,
661.000,0.00569162,
660.000,0.00639885,
659.000,0.00635133,
658.000,0.00482143,
657.000,0.0019015,
656.000,0.00109595,
655.000,0.00354763,
654.000,0.00473604,
653.000,0.00466438,
652.000,0.00493216,
651.000,0.00590948,
650.000,0.00624983,
649.000,0.00506948,
648.000,0.00430066,
647.000,0.00418059,
646.000,0.00322963,
645.000,0.00119607,
644.000,0.000935726,
643.000,0.00340159,
642.000,0.00621723,
641.000,0.0090942,
640.000,0.0115287,
639.000,0.0120596,
638.000,0.0102695,
637.000,0.00658555,
636.000,0.00416096,
635.000,0.00452574,
634.000,0.00402036,
633.000,0.00435641,
632.000,0.00737234,
631.000,0.00881952,
630.000,0.0076666,
629.000,0.00530259,
628.000,0.0033902,
627.000,0.00330558,
626.000,0.00501332,
625.000,0.00786693,
624.000,0.0110156,
623.000,0.0131826,
622.000,0.0130294,
621.000,0.0111541,
620.000,0.00947951,
619.000,0.00853575,
618.000,0.00664454,
617.000,0.00304761,
616.000,0.00297304,
615.000,0.00754894,
614.000,0.0118185,
613.000,0.0152902,
612.000,0.0171359,
611.000,0.0152202,
610.000,0.0100858,
609.000,0.00446127,
608.000,0.00113181,
607.000,0.00272141,
606.000,0.0087664,
605.000,0.015455,
604.000,0.0200021,
603.000,0.0206838,
602.000,0.017551,
601.000,0.0124825,
600.000,0.00757211,
599.000,0.00442563,
598.000,0.00347578,
597.000,0.00363868,
596.000,0.00493506,
595.000,0.00745183,
594.000,0.00935252,
593.000,0.0101444,
592.000,0.0109876,
591.000,0.011216,
590.000,0.0107611,
589.000,0.00923798,
588.000,0.00731579,
587.000,0.00405893,
586.000,0.00111429,
585.000,0.00275481,
584.000,0.00488169,
583.000,0.00359331,
582.000,0.00127373,
581.000,0.0046761,
580.000,0.00848316,
579.000,0.0106518,
578.000,0.00853762,
577.000,0.00311886,
576.000,0.00769829,
575.000,0.0144414,
574.000,0.0135556,
573.000,0.00667002,
572.000,0.00634526,
571.000,0.0135615,
570.000,0.0147102,
569.000,0.0107815,
568.000,0.004761,
567.000,0.00118895,
566.000,0.00415965,
565.000,0.00990607,
564.000,0.0157519,
563.000,0.0182283,
562.000,0.0164136,
561.000,0.0128943,
560.000,0.00936394,
559.000,0.00652858,
558.000,0.00458296,
557.000,0.00258334,
556.000,0.00131779,
555.000,0.00228418,
554.000,0.00147288,
553.000,0.00221026,
552.000,0.0073528,
551.000,0.0118587,
550.000,0.0137567,
549.000,0.0130728,
548.000,0.00821334,
547.000,0.00216724,
546.000,0.0038963,
545.000,0.0107848,
544.000,0.0180282,
543.000,0.0245764,
542.000,0.0261744,
541.000,0.021231,
540.000,0.0124238,
539.000,0.00486791,
538.000,0.00394704,
537.000,0.00846983,
536.000,0.0137984,
535.000,0.0188568,
534.000,0.0217096,
533.000,0.0189832,
532.000,0.0148817,
531.000,0.0185463,
530.000,0.0256857,
529.000,0.029402,
528.000,0.0319801,
527.000,0.035557,
526.000,0.0379323,
525.000,0.0353342,
524.000,0.0291499,
523.000,0.026087,
522.000,0.0255328,
521.000,0.0202972,
520.000,0.0120553,
519.000,0.00779807,
518.000,0.0102398,
517.000,0.0171997,
516.000,0.0265898,
515.000,0.0376173,
514.000,0.0449791,
513.000,0.0436909,
512.000,0.0366613,
511.000,0.0318002,
510.000,0.0324941,
509.000,0.0346714,
508.000,0.0305057,
507.000,0.0216562,
506.000,0.0107366,
505.000,0.00492873,
504.000,0.0121889,
503.000,0.017132,
502.000,0.012899,
501.000,0.0127791,
500.000,0.0228362,
499.000,0.0315948,
498.000,0.0344849,
497.000,0.0324675,
496.000,0.0264623,
495.000,0.0241038,
494.000,0.0267703,
493.000,0.0293474,
492.000,0.0283109,
491.000,0.0216046,
490.000,0.00898501,
489.000,0.00718582,
488.000,0.0190373,
487.000,0.0268718,
486.000,0.027911,
485.000,0.0213145,
484.000,0.00933706,
483.000,0.00216318,
482.000,0.00866595,
481.000,0.0225181,
480.000,0.0284714,
479.000,0.0173489,
478.000,0.00904234,
477.000,0.0118641,
476.000,0.0127137,
475.000,0.0245973,
474.000,0.0335727,
473.000,0.0284866,
472.000,0.0232648,
471.000,0.0225712,
470.000,0.0198704,
469.000,0.0143816,
468.000,0.0167875,
467.000,0.0228329,
466.000,0.0261498,
465.000,0.0273199,
464.000,0.0244797,
463.000,0.0189089,
462.000,0.0211984,
461.000,0.0322988,
460.000,0.037862,
459.000,0.0325374,
458.000,0.0218432,
457.000,0.0188108,
456.000,0.0258495,
455.000,0.0335553,
454.000,0.0273887,
453.000,0.00935728,
452.000,0.0103799,
451.000,0.0211141,
450.000,0.0270158,
449.000,0.0385882,
448.000,0.0514188,
447.000,0.0507283,
446.000,0.0376622,
445.000,0.0165344,
444.000,0.00423298,
443.000,0.0134179,
442.000,0.0225236,
441.000,0.0330608,
440.000,0.0441245,
439.000,0.0358404,
438.000,0.0143528,
437.000,0.0212369,
436.000,0.0433512,
435.000,0.0489976,
434.000,0.0397487,
433.000,0.0215738,
432.000,0.0216806,
431.000,0.0396572,
430.000,0.0387102,
429.000,0.0239272,
428.000,0.0330871,
427.000,0.0501182,
426.000,0.050317,
425.000,0.0421902,
424.000,0.0425361,
423.000,0.0644954,
422.000,0.0959895,
421.000,0.116369,
420.000,0.120022,
419.000,0.110214,
418.000,0.0872948,
417.000,0.0606459,
416.000,0.0371641,
415.000,0.0277908,
414.000,0.0194881,
413.000,0.00688115,
412.000,0.0235026,
411.000,0.046123,
410.000,0.0597793,
409.000,0.0657452,
408.000,0.0430807,
407.000,0.0325322,
406.000,0.0738693,
405.000,0.101706,
404.000,0.0975403,
403.000,0.0635813,
402.000,0.0332649,
401.000,0.0694958,
400.000,0.124611,
