,d2o 044 By Administrator Date Tuesday. December 14 2021,
Time,12:41:46,
Wavenumbers [1/cm],Transmittance %,
7000.000,7.14056,
6999.000,7.11452,
6998.000,7.08641,
6997.000,7.0558,
6996.000,7.02364,
6995.000,6.99133,
6994.000,6.95993,
6993.000,6.9296,
6992.000,6.89982,
6991.000,6.87,
6990.000,6.84022,
6989.000,6.81076,
6988.000,6.78066,
6987.000,6.74747,
6986.000,6.70953,
6985.000,6.66783,
6984.000,6.62487,
6983.000,6.58242,
6982.000,6.54183,
6981.000,6.50504,
6980.000,6.47322,
6979.000,6.44531,
6978.000,6.42007,
6977.000,6.39811,
6976.000,6.37905,
6975.000,6.35815,
6974.000,6.3301,
6973.000,6.29559,
6972.000,6.26009,
6971.000,6.22649,
6970.000,6.19302,
6969.000,6.15929,
6968.000,6.12846,
6967.000,6.10133,
6966.000,6.0738,
6965.000,6.04331,
6964.000,6.0133,
6963.000,5.98816,
6962.000,5.96636,
6961.000,5.94285,
6960.000,5.91555,
6959.000,5.88557,
6958.000,5.85418,
6957.000,5.82315,
6956.000,5.79565,
6955.000,5.77289,
6954.000,5.75137,
6953.000,5.72763,
6952.000,5.70348,
6951.000,5.68229,
6950.000,5.66193,
6949.000,5.6364,
6948.000,5.6043,
6947.000,5.57137,
6946.000,5.54318,
6945.000,5.51955,
6944.000,5.49754,
6943.000,5.47579,
6942.000,5.45376,
6941.000,5.42987,
6940.000,5.40346,
6939.000,5.37748,
6938.000,5.35598,
6937.000,5.33868,
6936.000,5.32029,
6935.000,5.29654,
6934.000,5.26949,
6933.000,5.24536,
6932.000,5.22682,
6931.000,5.20943,
6930.000,5.18775,
6929.000,5.16335,
6928.000,5.14314,
6927.000,5.13009,
6926.000,5.11918,
6925.000,5.10362,
6924.000,5.08282,
6923.000,5.06157,
6922.000,5.04275,
6921.000,5.024,
6920.000,5.0017,
6919.000,4.97585,
6918.000,4.9505,
6917.000,4.92966,
6916.000,4.91341,
6915.000,4.89857,
6914.000,4.88349,
6913.000,4.87025,
6912.000,4.86001,
6911.000,4.8485,
6910.000,4.83005,
6909.000,4.806,
6908.000,4.78474,
6907.000,4.77156,
6906.000,4.76246,
6905.000,4.75055,
6904.000,4.73474,
6903.000,4.71795,
6902.000,4.70052,
6901.000,4.68054,
6900.000,4.65951,
6899.000,4.64293,
6898.000,4.63432,
6897.000,4.63164,
6896.000,4.63062,
6895.000,4.62898,
6894.000,4.62583,
6893.000,4.61958,
6892.000,4.60813,
6891.000,4.59104,
6890.000,4.57097,
6889.000,4.55249,
6888.000,4.53881,
6887.000,4.52947,
6886.000,4.5217,
6885.000,4.514,
6884.000,4.50714,
6883.000,4.50181,
6882.000,4.49671,
6881.000,4.48972,
6880.000,4.47934,
6879.000,4.46467,
6878.000,4.44639,
6877.000,4.42841,
6876.000,4.41591,
6875.000,4.40996,
6874.000,4.40614,
6873.000,4.40035,
6872.000,4.39379,
6871.000,4.39027,
6870.000,4.39037,
6869.000,4.39125,
6868.000,4.39084,
6867.000,4.38911,
6866.000,4.38603,
6865.000,4.38092,
6864.000,4.37348,
6863.000,4.36384,
6862.000,4.35213,
6861.000,4.33968,
6860.000,4.32989,
6859.000,4.32549,
6858.000,4.32527,
6857.000,4.3251,
6856.000,4.32167,
6855.000,4.31464,
6854.000,4.30622,
6853.000,4.29978,
6852.000,4.29792,
6851.000,4.30019,
6850.000,4.30347,
6849.000,4.30557,
6848.000,4.30692,
6847.000,4.30804,
6846.000,4.30766,
6845.000,4.3052,
6844.000,4.30304,
6843.000,4.304,
6842.000,4.3076,
6841.000,4.31151,
6840.000,4.31528,
6839.000,4.31993,
6838.000,4.32487,
6837.000,4.32834,
6836.000,4.3296,
6835.000,4.32825,
6834.000,4.32258,
6833.000,4.31188,
6832.000,4.30015,
6831.000,4.29356,
6830.000,4.29368,
6829.000,4.29645,
6828.000,4.29888,
6827.000,4.30285,
6826.000,4.31088,
6825.000,4.32098,
6824.000,4.32833,
6823.000,4.33132,
6822.000,4.33338,
6821.000,4.33874,
6820.000,4.34756,
6819.000,4.35591,
6818.000,4.3601,
6817.000,4.3604,
6816.000,4.36016,
6815.000,4.36156,
6814.000,4.36326,
6813.000,4.36318,
6812.000,4.36235,
6811.000,4.36432,
6810.000,4.37061,
6809.000,4.37839,
6808.000,4.38371,
6807.000,4.38602,
6806.000,4.38838,
6805.000,4.39359,
6804.000,4.4013,
6803.000,4.40955,
6802.000,4.41821,
6801.000,4.42977,
6800.000,4.44595,
6799.000,4.46462,
6798.000,4.48127,
6797.000,4.49323,
6796.000,4.50128,
6795.000,4.50794,
6794.000,4.51554,
6793.000,4.52541,
6792.000,4.53722,
6791.000,4.54893,
6790.000,4.55857,
6789.000,4.56583,
6788.000,4.57121,
6787.000,4.57472,
6786.000,4.57724,
6785.000,4.58158,
6784.000,4.58954,
6783.000,4.59936,
6782.000,4.60908,
6781.000,4.621,
6780.000,4.63854,
6779.000,4.66006,
6778.000,4.6805,
6777.000,4.69937,
6776.000,4.72127,
6775.000,4.74699,
6774.000,4.76981,
6773.000,4.78422,
6772.000,4.79298,
6771.000,4.80187,
6770.000,4.81255,
6769.000,4.82427,
6768.000,4.83832,
6767.000,4.85585,
6766.000,4.87436,
6765.000,4.89123,
6764.000,4.90825,
6763.000,4.92807,
6762.000,4.94843,
6761.000,4.96535,
6760.000,4.98042,
6759.000,4.99878,
6758.000,5.02111,
6757.000,5.04321,
6756.000,5.0632,
6755.000,5.08379,
6754.000,5.10673,
6753.000,5.1299,
6752.000,5.1511,
6751.000,5.17111,
6750.000,5.1915,
6749.000,5.21264,
6748.000,5.23511,
6747.000,5.25975,
6746.000,5.28529,
6745.000,5.30914,
6744.000,5.33146,
6743.000,5.35558,
6742.000,5.38314,
6741.000,5.41152,
6740.000,5.43766,
6739.000,5.46188,
6738.000,5.48606,
6737.000,5.51006,
6736.000,5.53241,
6735.000,5.55353,
6734.000,5.57592,
6733.000,5.60155,
6732.000,5.63011,
6731.000,5.65954,
6730.000,5.68736,
6729.000,5.71209,
6728.000,5.73459,
6727.000,5.75812,
6726.000,5.78627,
6725.000,5.82006,
6724.000,5.85705,
6723.000,5.89349,
6722.000,5.92779,
6721.000,5.96104,
6720.000,5.9942,
6719.000,6.02625,
6718.000,6.05655,
6717.000,6.08801,
6716.000,6.12438,
6715.000,6.16456,
6714.000,6.20291,
6713.000,6.2363,
6712.000,6.26798,
6711.000,6.30277,
6710.000,6.34123,
6709.000,6.38092,
6708.000,6.42097,
6707.000,6.46207,
6706.000,6.50312,
6705.000,6.54139,
6704.000,6.57618,
6703.000,6.61025,
6702.000,6.6473,
6701.000,6.6894,
6700.000,6.73584,
6699.000,6.78399,
6698.000,6.8298,
6697.000,6.87078,
6696.000,6.9071,
6695.000,6.93997,
6694.000,6.97106,
6693.000,7.00391,
6692.000,7.04337,
6691.000,7.09134,
6690.000,7.14423,
6689.000,7.19655,
6688.000,7.24558,
6687.000,7.29134,
6686.000,7.3344,
6685.000,7.37628,
6684.000,7.42016,
6683.000,7.46827,
6682.000,7.51911,
6681.000,7.56938,
6680.000,7.61784,
6679.000,7.66516,
6678.000,7.71122,
6677.000,7.7547,
6676.000,7.79524,
6675.000,7.8344,
6674.000,7.87511,
6673.000,7.92076,
6672.000,7.97338,
6671.000,8.03124,
6670.000,8.08996,
6669.000,8.14735,
6668.000,8.20517,
6667.000,8.26484,
6666.000,8.32363,
6665.000,8.3776,
6664.000,8.42654,
6663.000,8.47352,
6662.000,8.52099,
6661.000,8.56958,
6660.000,8.61935,
6659.000,8.67031,
6658.000,8.72303,
6657.000,8.77928,
6656.000,8.84033,
6655.000,8.90351,
6654.000,8.96332,
6653.000,9.01786,
6652.000,9.07106,
6651.000,9.12647,
6650.000,9.18222,
6649.000,9.2355,
6648.000,9.28866,
6647.000,9.34614,
6646.000,9.40736,
6645.000,9.46724,
6644.000,9.52326,
6643.000,9.57753,
6642.000,9.63257,
6641.000,9.68888,
6640.000,9.7469,
6639.000,9.80801,
6638.000,9.87232,
6637.000,9.93737,
6636.000,9.99989,
6635.000,10.0583,
6634.000,10.1134,
6633.000,10.1674,
6632.000,10.2213,
6631.000,10.2741,
6630.000,10.3261,
6629.000,10.3813,
6628.000,10.4434,
6627.000,10.5096,
6626.000,10.5725,
6625.000,10.6294,
6624.000,10.6842,
6623.000,10.7393,
6622.000,10.7909,
6621.000,10.8364,
6620.000,10.8803,
6619.000,10.9288,
6618.000,10.9811,
6617.000,11.0329,
6616.000,11.0837,
6615.000,11.136,
6614.000,11.1892,
6613.000,11.2394,
6612.000,11.2846,
6611.000,11.3267,
6610.000,11.3687,
6609.000,11.4134,
6608.000,11.462,
6607.000,11.5119,
6606.000,11.5578,
6605.000,11.5992,
6604.000,11.6414,
6603.000,11.6867,
6602.000,11.7294,
6601.000,11.7634,
6600.000,11.7913,
6599.000,11.8195,
6598.000,11.8481,
6597.000,11.8724,
6596.000,11.8925,
6595.000,11.9147,
6594.000,11.9415,
6593.000,11.9685,
6592.000,11.9913,
6591.000,12.0102,
6590.000,12.028,
6589.000,12.0452,
6588.000,12.0611,
6587.000,12.0753,
6586.000,12.0881,
6585.000,12.1007,
6584.000,12.1149,
6583.000,12.1294,
6582.000,12.1396,
6581.000,12.143,
6580.000,12.1421,
6579.000,12.1408,
6578.000,12.138,
6577.000,12.1306,
6576.000,12.1194,
6575.000,12.1097,
6574.000,12.1033,
6573.000,12.0975,
6572.000,12.0895,
6571.000,12.08,
6570.000,12.0701,
6569.000,12.0581,
6568.000,12.0415,
6567.000,12.02,
6566.000,11.996,
6565.000,11.9724,
6564.000,11.9503,
6563.000,11.9285,
6562.000,11.9059,
6561.000,11.8839,
6560.000,11.8631,
6559.000,11.8403,
6558.000,11.8106,
6557.000,11.7744,
6556.000,11.7385,
6555.000,11.7071,
6554.000,11.6769,
6553.000,11.644,
6552.000,11.6105,
6551.000,11.5806,
6550.000,11.552,
6549.000,11.5182,
6548.000,11.4766,
6547.000,11.4302,
6546.000,11.3829,
6545.000,11.3364,
6544.000,11.2919,
6543.000,11.2505,
6542.000,11.2109,
6541.000,11.1704,
6540.000,11.1282,
6539.000,11.0849,
6538.000,11.0393,
6537.000,10.9896,
6536.000,10.9378,
6535.000,10.8888,
6534.000,10.8451,
6533.000,10.804,
6532.000,10.7617,
6531.000,10.7172,
6530.000,10.6716,
6529.000,10.6252,
6528.000,10.5772,
6527.000,10.5275,
6526.000,10.4781,
6525.000,10.4309,
6524.000,10.3858,
6523.000,10.3402,
6522.000,10.2921,
6521.000,10.2437,
6520.000,10.199,
6519.000,10.1574,
6518.000,10.114,
6517.000,10.0649,
6516.000,10.012,
6515.000,9.95878,
6514.000,9.90596,
6513.000,9.85257,
6512.000,9.80029,
6511.000,9.75289,
6510.000,9.71172,
6509.000,9.6741,
6508.000,9.63591,
6507.000,9.59421,
6506.000,9.54805,
6505.000,9.49871,
6504.000,9.44889,
6503.000,9.40049,
6502.000,9.35373,
6501.000,9.30856,
6500.000,9.26562,
6499.000,9.22436,
6498.000,9.18189,
6497.000,9.13542,
6496.000,9.08521,
6495.000,9.03395,
6494.000,8.98419,
6493.000,8.93729,
6492.000,8.89327,
6491.000,8.85026,
6490.000,8.80542,
6489.000,8.7579,
6488.000,8.70985,
6487.000,8.66364,
6486.000,8.61926,
6485.000,8.57538,
6484.000,8.53136,
6483.000,8.48686,
6482.000,8.44115,
6481.000,8.3944,
6480.000,8.34815,
6479.000,8.3035,
6478.000,8.26055,
6477.000,8.22051,
6476.000,8.18559,
6475.000,8.15483,
6474.000,8.12249,
6473.000,8.08388,
6472.000,8.04111,
6471.000,7.99976,
6470.000,7.9613,
6469.000,7.92209,
6468.000,7.87921,
6467.000,7.83392,
6466.000,7.78865,
6465.000,7.74355,
6464.000,7.69732,
6463.000,7.64997,
6462.000,7.60341,
6461.000,7.55975,
6460.000,7.5194,
6459.000,7.48059,
6458.000,7.44165,
6457.000,7.40364,
6456.000,7.36956,
6455.000,7.34032,
6454.000,7.31259,
6453.000,7.28204,
6452.000,7.24711,
6451.000,7.20876,
6450.000,7.16783,
6449.000,7.12476,
6448.000,7.08102,
6447.000,7.03877,
6446.000,6.99944,
6445.000,6.96344,
6444.000,6.93022,
6443.000,6.89738,
6442.000,6.86122,
6441.000,6.82038,
6440.000,6.77809,
6439.000,6.73882,
6438.000,6.70353,
6437.000,6.67001,
6436.000,6.63697,
6435.000,6.60507,
6434.000,6.57417,
6433.000,6.54202,
6432.000,6.50668,
6431.000,6.46856,
6430.000,6.42951,
6429.000,6.39133,
6428.000,6.35565,
6427.000,6.32353,
6426.000,6.29434,
6425.000,6.26556,
6424.000,6.23443,
6423.000,6.19954,
6422.000,6.16113,
6421.000,6.12081,
6420.000,6.08107,
6419.000,6.04389,
6418.000,6.00965,
6417.000,5.97754,
6416.000,5.94694,
6415.000,5.91742,
6414.000,5.88795,
6413.000,5.85742,
6412.000,5.82621,
6411.000,5.79614,
6410.000,5.76796,
6409.000,5.73988,
6408.000,5.70959,
6407.000,5.6772,
6406.000,5.64536,
6405.000,5.61619,
6404.000,5.58917,
6403.000,5.56241,
6402.000,5.53513,
6401.000,5.50745,
6400.000,5.47813,
6399.000,5.4446,
6398.000,5.40654,
6397.000,5.36774,
6396.000,5.3328,
6395.000,5.30255,
6394.000,5.27453,
6393.000,5.24711,
6392.000,5.22066,
6391.000,5.19473,
6390.000,5.16716,
6389.000,5.13713,
6388.000,5.10679,
6387.000,5.07854,
6386.000,5.05229,
6385.000,5.02671,
6384.000,5.00141,
6383.000,4.97634,
6382.000,4.95025,
6381.000,4.92185,
6380.000,4.89145,
6379.000,4.86018,
6378.000,4.82864,
6377.000,4.79772,
6376.000,4.76936,
6375.000,4.74472,
6374.000,4.7225,
6373.000,4.70076,
6372.000,4.67936,
6371.000,4.6588,
6370.000,4.63775,
6369.000,4.61433,
6368.000,4.58917,
6367.000,4.56497,
6366.000,4.54282,
6365.000,4.52141,
6364.000,4.49981,
6363.000,4.47883,
6362.000,4.45886,
6361.000,4.43867,
6360.000,4.4173,
6359.000,4.39557,
6358.000,4.37477,
6357.000,4.3548,
6356.000,4.33456,
6355.000,4.31343,
6354.000,4.29152,
6353.000,4.26908,
6352.000,4.24638,
6351.000,4.2238,
6350.000,4.2017,
6349.000,4.18049,
6348.000,4.16068,
6347.000,4.1422,
6346.000,4.12393,
6345.000,4.10446,
6344.000,4.0835,
6343.000,4.06196,
6342.000,4.04124,
6341.000,4.02299,
6340.000,4.0087,
6339.000,3.99796,
6338.000,3.98743,
6337.000,3.97308,
6336.000,3.95352,
6335.000,3.93029,
6334.000,3.90548,
6333.000,3.88108,
6332.000,3.86015,
6331.000,3.84563,
6330.000,3.83681,
6329.000,3.82924,
6328.000,3.81921,
6327.000,3.80688,
6326.000,3.7939,
6325.000,3.78033,
6324.000,3.76571,
6323.000,3.75147,
6322.000,3.73937,
6321.000,3.72868,
6320.000,3.71705,
6319.000,3.70402,
6318.000,3.69139,
6317.000,3.68007,
6316.000,3.66906,
6315.000,3.65785,
6314.000,3.64758,
6313.000,3.63845,
6312.000,3.62821,
6311.000,3.6149,
6310.000,3.59997,
6309.000,3.58673,
6308.000,3.57623,
6307.000,3.56687,
6306.000,3.55758,
6305.000,3.54926,
6304.000,3.54191,
6303.000,3.5327,
6302.000,3.51873,
6301.000,3.50106,
6300.000,3.48395,
6299.000,3.47033,
6298.000,3.45974,
6297.000,3.45087,
6296.000,3.44376,
6295.000,3.43844,
6294.000,3.43318,
6293.000,3.42632,
6292.000,3.41874,
6291.000,3.41246,
6290.000,3.40717,
6289.000,3.40026,
6288.000,3.39081,
6287.000,3.38115,
6286.000,3.37374,
6285.000,3.36797,
6284.000,3.36144,
6283.000,3.35331,
6282.000,3.34454,
6281.000,3.33581,
6280.000,3.32665,
6279.000,3.3171,
6278.000,3.3087,
6277.000,3.3033,
6276.000,3.30124,
6275.000,3.30099,
6274.000,3.30045,
6273.000,3.29835,
6272.000,3.29473,
6271.000,3.2901,
6270.000,3.28474,
6269.000,3.2789,
6268.000,3.2731,
6267.000,3.2674,
6266.000,3.2607,
6265.000,3.25192,
6264.000,3.24159,
6263.000,3.23154,
6262.000,3.22298,
6261.000,3.21625,
6260.000,3.2121,
6259.000,3.21158,
6258.000,3.2138,
6257.000,3.21528,
6256.000,3.21295,
6255.000,3.20679,
6254.000,3.19866,
6253.000,3.18971,
6252.000,3.18085,
6251.000,3.17453,
6250.000,3.17362,
6249.000,3.17785,
6248.000,3.18335,
6247.000,3.18657,
6246.000,3.18751,
6245.000,3.18843,
6244.000,3.19054,
6243.000,3.19295,
6242.000,3.194,
6241.000,3.19245,
6240.000,3.18768,
6239.000,3.1802,
6238.000,3.17195,
6237.000,3.16557,
6236.000,3.16279,
6235.000,3.16361,
6234.000,3.16699,
6233.000,3.17175,
6232.000,3.17667,
6231.000,3.18013,
6230.000,3.18091,
6229.000,3.17954,
6228.000,3.17835,
6227.000,3.17921,
6226.000,3.18159,
6225.000,3.18366,
6224.000,3.18544,
6223.000,3.18939,
6222.000,3.19712,
6221.000,3.20652,
6220.000,3.21351,
6219.000,3.21657,
6218.000,3.21808,
6217.000,3.22139,
6216.000,3.22793,
6215.000,3.23742,
6214.000,3.24917,
6213.000,3.26145,
6212.000,3.27102,
6211.000,3.27504,
6210.000,3.27382,
6209.000,3.27039,
6208.000,3.26744,
6207.000,3.26596,
6206.000,3.26679,
6205.000,3.27141,
6204.000,3.28013,
6203.000,3.29113,
6202.000,3.30276,
6201.000,3.31571,
6200.000,3.33114,
6199.000,3.34741,
6198.000,3.36105,
6197.000,3.37084,
6196.000,3.37878,
6195.000,3.38663,
6194.000,3.39388,
6193.000,3.40016,
6192.000,3.40741,
6191.000,3.41775,
6190.000,3.43049,
6189.000,3.44346,
6188.000,3.45614,
6187.000,3.46942,
6186.000,3.483,
6185.000,3.49569,
6184.000,3.50811,
6183.000,3.52282,
6182.000,3.54105,
6181.000,3.5611,
6180.000,3.58067,
6179.000,3.59905,
6178.000,3.61615,
6177.000,3.63108,
6176.000,3.64328,
6175.000,3.65416,
6174.000,3.66607,
6173.000,3.68014,
6172.000,3.69599,
6171.000,3.71322,
6170.000,3.73189,
6169.000,3.75195,
6168.000,3.77301,
6167.000,3.7948,
6166.000,3.81727,
6165.000,3.83997,
6164.000,3.86214,
6163.000,3.88335,
6162.000,3.90387,
6161.000,3.92436,
6160.000,3.94526,
6159.000,3.96646,
6158.000,3.98761,
6157.000,4.0086,
6156.000,4.02972,
6155.000,4.05121,
6154.000,4.07315,
6153.000,4.09602,
6152.000,4.12092,
6151.000,4.14828,
6150.000,4.17674,
6149.000,4.20404,
6148.000,4.22929,
6147.000,4.25333,
6146.000,4.27693,
6145.000,4.29975,
6144.000,4.32172,
6143.000,4.34427,
6142.000,4.36917,
6141.000,4.39655,
6140.000,4.42512,
6139.000,4.4542,
6138.000,4.48451,
6137.000,4.51648,
6136.000,4.54876,
6135.000,4.57933,
6134.000,4.60783,
6133.000,4.63584,
6132.000,4.66456,
6131.000,4.69307,
6130.000,4.71983,
6129.000,4.7454,
6128.000,4.77232,
6127.000,4.80221,
6126.000,4.83418,
6125.000,4.86688,
6124.000,4.90082,
6123.000,4.93735,
6122.000,4.97582,
6121.000,5.01343,
6120.000,5.04801,
6119.000,5.08051,
6118.000,5.11382,
6117.000,5.14991,
6116.000,5.18794,
6115.000,5.22551,
6114.000,5.26131,
6113.000,5.29651,
6112.000,5.3328,
6111.000,5.36981,
6110.000,5.40556,
6109.000,5.4397,
6108.000,5.4744,
6107.000,5.51085,
6106.000,5.54688,
6105.000,5.57981,
6104.000,5.61101,
6103.000,5.64502,
6102.000,5.68436,
6101.000,5.72707,
6100.000,5.77001,
6099.000,5.81225,
6098.000,5.85439,
6097.000,5.89645,
6096.000,5.93801,
6095.000,5.97985,
6094.000,6.02337,
6093.000,6.06839,
6092.000,6.1127,
6091.000,6.15421,
6090.000,6.19295,
6089.000,6.23072,
6088.000,6.26967,
6087.000,6.31146,
6086.000,6.35707,
6085.000,6.40606,
6084.000,6.45589,
6083.000,6.50332,
6082.000,6.54704,
6081.000,6.58875,
6080.000,6.63098,
6079.000,6.67487,
6078.000,6.72045,
6077.000,6.76766,
6076.000,6.81595,
6075.000,6.86379,
6074.000,6.91026,
6073.000,6.95656,
6072.000,7.00434,
6071.000,7.05314,
6070.000,7.10127,
6069.000,7.14879,
6068.000,7.19727,
6067.000,7.24698,
6066.000,7.29679,
6065.000,7.34698,
6064.000,7.39921,
6063.000,7.45276,
6062.000,7.50402,
6061.000,7.55113,
6060.000,7.59689,
6059.000,7.64513,
6058.000,7.69623,
6057.000,7.74832,
6056.000,7.80048,
6055.000,7.85261,
6054.000,7.90378,
6053.000,7.95349,
6052.000,8.00385,
6051.000,8.05776,
6050.000,8.11545,
6049.000,8.17448,
6048.000,8.2325,
6047.000,8.28844,
6046.000,8.34166,
6045.000,8.39227,
6044.000,8.44223,
6043.000,8.49428,
6042.000,8.5495,
6041.000,8.60681,
6040.000,8.66446,
6039.000,8.72116,
6038.000,8.77607,
6037.000,8.82909,
6036.000,8.88104,
6035.000,8.93279,
6034.000,8.98471,
6033.000,9.03729,
6032.000,9.09148,
6031.000,9.14731,
6030.000,9.20291,
6029.000,9.25593,
6028.000,9.3057,
6027.000,9.3534,
6026.000,9.40114,
6025.000,9.45099,
6024.000,9.50377,
6023.000,9.55792,
6022.000,9.61058,
6021.000,9.66067,
6020.000,9.7096,
6019.000,9.75848,
6018.000,9.80645,
6017.000,9.85304,
6016.000,9.8999,
6015.000,9.94863,
6014.000,9.9978,
6013.000,10.0446,
6012.000,10.0885,
6011.000,10.1309,
6010.000,10.1727,
6009.000,10.2123,
6008.000,10.2485,
6007.000,10.2825,
6006.000,10.3164,
6005.000,10.3521,
6004.000,10.389,
6003.000,10.425,
6002.000,10.458,
6001.000,10.4876,
6000.000,10.515,
5999.000,10.5409,
5998.000,10.5652,
5997.000,10.5877,
5996.000,10.609,
5995.000,10.6286,
5994.000,10.6455,
5993.000,10.6596,
5992.000,10.672,
5991.000,10.6841,
5990.000,10.6963,
5989.000,10.7084,
5988.000,10.7193,
5987.000,10.7278,
5986.000,10.7337,
5985.000,10.7379,
5984.000,10.7411,
5983.000,10.7418,
5982.000,10.7385,
5981.000,10.7327,
5980.000,10.7274,
5979.000,10.7224,
5978.000,10.7143,
5977.000,10.7018,
5976.000,10.6875,
5975.000,10.6734,
5974.000,10.658,
5973.000,10.6392,
5972.000,10.618,
5971.000,10.5968,
5970.000,10.5757,
5969.000,10.5528,
5968.000,10.5276,
5967.000,10.5011,
5966.000,10.4739,
5965.000,10.4458,
5964.000,10.4159,
5963.000,10.3841,
5962.000,10.3504,
5961.000,10.3154,
5960.000,10.2806,
5959.000,10.2469,
5958.000,10.2135,
5957.000,10.1782,
5956.000,10.1397,
5955.000,10.0985,
5954.000,10.0562,
5953.000,10.0137,
5952.000,9.97059,
5951.000,9.92611,
5950.000,9.88039,
5949.000,9.83469,
5948.000,9.78972,
5947.000,9.74486,
5946.000,9.69965,
5945.000,9.65505,
5944.000,9.61215,
5943.000,9.57024,
5942.000,9.52752,
5941.000,9.48335,
5940.000,9.43843,
5939.000,9.39345,
5938.000,9.34869,
5937.000,9.30458,
5936.000,9.26099,
5935.000,9.21637,
5934.000,9.16895,
5933.000,9.11883,
5932.000,9.06765,
5931.000,9.01662,
5930.000,8.96613,
5929.000,8.91684,
5928.000,8.86969,
5927.000,8.82477,
5926.000,8.78126,
5925.000,8.73825,
5924.000,8.6948,
5923.000,8.64975,
5922.000,8.60274,
5921.000,8.55462,
5920.000,8.50589,
5919.000,8.45576,
5918.000,8.4042,
5917.000,8.35361,
5916.000,8.3064,
5915.000,8.26176,
5914.000,8.21712,
5913.000,8.17207,
5912.000,8.12822,
5911.000,8.08563,
5910.000,8.04235,
5909.000,7.99769,
5908.000,7.95308,
5907.000,7.90896,
5906.000,7.86332,
5905.000,7.8144,
5904.000,7.76313,
5903.000,7.71179,
5902.000,7.66186,
5901.000,7.61439,
5900.000,7.57071,
5899.000,7.53128,
5898.000,7.49452,
5897.000,7.45775,
5896.000,7.41895,
5895.000,7.37723,
5894.000,7.33292,
5893.000,7.28751,
5892.000,7.24274,
5891.000,7.1992,
5890.000,7.15644,
5889.000,7.11434,
5888.000,7.0735,
5887.000,7.03389,
5886.000,6.99437,
5885.000,6.95404,
5884.000,6.91302,
5883.000,6.87157,
5882.000,6.82936,
5881.000,6.78642,
5880.000,6.7441,
5879.000,6.70395,
5878.000,6.66598,
5877.000,6.62847,
5876.000,6.58933,
5875.000,6.5474,
5874.000,6.50295,
5873.000,6.4573,
5872.000,6.41212,
5871.000,6.36872,
5870.000,6.32801,
5869.000,6.29042,
5868.000,6.25573,
5867.000,6.22292,
5866.000,6.19063,
5865.000,6.1577,
5864.000,6.12332,
5863.000,6.08704,
5862.000,6.04909,
5861.000,6.01047,
5860.000,5.97237,
5859.000,5.93572,
5858.000,5.90117,
5857.000,5.86888,
5856.000,5.83776,
5855.000,5.80572,
5854.000,5.77122,
5853.000,5.7344,
5852.000,5.6967,
5851.000,5.65975,
5850.000,5.62474,
5849.000,5.59191,
5848.000,5.56008,
5847.000,5.5275,
5846.000,5.49352,
5845.000,5.45896,
5844.000,5.42477,
5843.000,5.39116,
5842.000,5.35842,
5841.000,5.32717,
5840.000,5.29717,
5839.000,5.26692,
5838.000,5.23543,
5837.000,5.20344,
5836.000,5.17226,
5835.000,5.14217,
5834.000,5.11248,
5833.000,5.08245,
5832.000,5.05131,
5831.000,5.01845,
5830.000,4.98437,
5829.000,4.95059,
5828.000,4.91783,
5827.000,4.88551,
5826.000,4.8536,
5825.000,4.82349,
5824.000,4.79606,
5823.000,4.77023,
5822.000,4.7446,
5821.000,4.7191,
5820.000,4.69354,
5819.000,4.66614,
5818.000,4.6355,
5817.000,4.60309,
5816.000,4.57163,
5815.000,4.54166,
5814.000,4.5118,
5813.000,4.48166,
5812.000,4.45234,
5811.000,4.4242,
5810.000,4.39642,
5809.000,4.36885,
5808.000,4.34249,
5807.000,4.31768,
5806.000,4.29338,
5805.000,4.26874,
5804.000,4.2442,
5803.000,4.22029,
5802.000,4.19664,
5801.000,4.17236,
5800.000,4.14678,
5799.000,4.11962,
5798.000,4.09138,
5797.000,4.06363,
5796.000,4.03791,
5795.000,4.01428,
5794.000,3.99151,
5793.000,3.96827,
5792.000,3.94369,
5791.000,3.91738,
5790.000,3.89026,
5789.000,3.86483,
5788.000,3.84301,
5787.000,3.82381,
5786.000,3.8044,
5785.000,3.78331,
5784.000,3.7611,
5783.000,3.73812,
5782.000,3.71371,
5781.000,3.68803,
5780.000,3.66303,
5779.000,3.6404,
5778.000,3.61974,
5777.000,3.59944,
5776.000,3.57857,
5775.000,3.55713,
5774.000,3.53521,
5773.000,3.51276,
5772.000,3.48992,
5771.000,3.46709,
5770.000,3.44492,
5769.000,3.42408,
5768.000,3.40448,
5767.000,3.38489,
5766.000,3.36422,
5765.000,3.34332,
5764.000,3.3243,
5763.000,3.30786,
5762.000,3.29229,
5761.000,3.27563,
5760.000,3.25768,
5759.000,3.23905,
5758.000,3.21929,
5757.000,3.19751,
5756.000,3.17429,
5755.000,3.15179,
5754.000,3.13178,
5753.000,3.11466,
5752.000,3.10041,
5751.000,3.08927,
5750.000,3.08075,
5749.000,3.07239,
5748.000,3.06092,
5747.000,3.04506,
5746.000,3.02652,
5745.000,3.00804,
5744.000,2.99069,
5743.000,2.97359,
5742.000,2.95594,
5741.000,2.93836,
5740.000,2.92192,
5739.000,2.90706,
5738.000,2.8937,
5737.000,2.88185,
5736.000,2.87107,
5735.000,2.86007,
5734.000,2.84778,
5733.000,2.83475,
5732.000,2.82233,
5731.000,2.81074,
5730.000,2.79859,
5729.000,2.78471,
5728.000,2.7696,
5727.000,2.7547,
5726.000,2.74124,
5725.000,2.7298,
5724.000,2.72018,
5723.000,2.71101,
5722.000,2.70026,
5721.000,2.68702,
5720.000,2.67263,
5719.000,2.65956,
5718.000,2.64911,
5717.000,2.6407,
5716.000,2.6329,
5715.000,2.62466,
5714.000,2.61584,
5713.000,2.60693,
5712.000,2.59868,
5711.000,2.59143,
5710.000,2.58467,
5709.000,2.57716,
5708.000,2.56792,
5707.000,2.55725,
5706.000,2.54664,
5705.000,2.53754,
5704.000,2.5303,
5703.000,2.52423,
5702.000,2.51861,
5701.000,2.51284,
5700.000,2.50597,
5699.000,2.49685,
5698.000,2.4856,
5697.000,2.47425,
5696.000,2.46504,
5695.000,2.45815,
5694.000,2.45177,
5693.000,2.44458,
5692.000,2.43675,
5691.000,2.42888,
5690.000,2.42071,
5689.000,2.41169,
5688.000,2.40191,
5687.000,2.39171,
5686.000,2.3808,
5685.000,2.36855,
5684.000,2.3551,
5683.000,2.34182,
5682.000,2.33063,
5681.000,2.32311,
5680.000,2.31987,
5679.000,2.31992,
5678.000,2.32074,
5677.000,2.31949,
5676.000,2.3145,
5675.000,2.30576,
5674.000,2.29407,
5673.000,2.28067,
5672.000,2.2676,
5671.000,2.25717,
5670.000,2.25041,
5669.000,2.24594,
5668.000,2.24115,
5667.000,2.23461,
5666.000,2.22686,
5665.000,2.21935,
5664.000,2.21283,
5663.000,2.2071,
5662.000,2.20165,
5661.000,2.19633,
5660.000,2.19127,
5659.000,2.18658,
5658.000,2.18214,
5657.000,2.17778,
5656.000,2.17346,
5655.000,2.16905,
5654.000,2.1641,
5653.000,2.15806,
5652.000,2.15133,
5651.000,2.14551,
5650.000,2.14215,
5649.000,2.14094,
5648.000,2.14,
5647.000,2.13769,
5646.000,2.13383,
5645.000,2.12888,
5644.000,2.12307,
5643.000,2.11677,
5642.000,2.11106,
5641.000,2.10687,
5640.000,2.10404,
5639.000,2.10181,
5638.000,2.09996,
5637.000,2.09876,
5636.000,2.09809,
5635.000,2.09749,
5634.000,2.09691,
5633.000,2.09664,
5632.000,2.09665,
5631.000,2.09678,
5630.000,2.0975,
5629.000,2.09942,
5628.000,2.10209,
5627.000,2.10411,
5626.000,2.1048,
5625.000,2.10468,
5624.000,2.10433,
5623.000,2.10375,
5622.000,2.10343,
5621.000,2.10482,
5620.000,2.10884,
5619.000,2.11449,
5618.000,2.11999,
5617.000,2.1246,
5616.000,2.12866,
5615.000,2.13224,
5614.000,2.13493,
5613.000,2.13692,
5612.000,2.13935,
5611.000,2.14327,
5610.000,2.14876,
5609.000,2.15504,
5608.000,2.16129,
5607.000,2.16716,
5606.000,2.17275,
5605.000,2.17837,
5604.000,2.18423,
5603.000,2.19044,
5602.000,2.19713,
5601.000,2.20437,
5600.000,2.21191,
5599.000,2.21931,
5598.000,2.22643,
5597.000,2.23357,
5596.000,2.24125,
5595.000,2.25012,
5594.000,2.261,
5593.000,2.27421,
5592.000,2.28881,
5591.000,2.30303,
5590.000,2.31561,
5589.000,2.32625,
5588.000,2.3351,
5587.000,2.34274,
5586.000,2.35066,
5585.000,2.36048,
5584.000,2.37219,
5583.000,2.38426,
5582.000,2.39618,
5581.000,2.40938,
5580.000,2.425,
5579.000,2.44177,
5578.000,2.45762,
5577.000,2.47209,
5576.000,2.48584,
5575.000,2.49853,
5574.000,2.50939,
5573.000,2.51938,
5572.000,2.53091,
5571.000,2.54524,
5570.000,2.56164,
5569.000,2.57935,
5568.000,2.59865,
5567.000,2.61952,
5566.000,2.64064,
5565.000,2.66062,
5564.000,2.67923,
5563.000,2.69679,
5562.000,2.71332,
5561.000,2.72899,
5560.000,2.74455,
5559.000,2.76068,
5558.000,2.77762,
5557.000,2.79572,
5556.000,2.81559,
5555.000,2.83715,
5554.000,2.85929,
5553.000,2.88107,
5552.000,2.9025,
5551.000,2.92376,
5550.000,2.94449,
5549.000,2.96452,
5548.000,2.9845,
5547.000,3.00532,
5546.000,3.02734,
5545.000,3.05063,
5544.000,3.07512,
5543.000,3.10012,
5542.000,3.12445,
5541.000,3.14778,
5540.000,3.17121,
5539.000,3.19583,
5538.000,3.22122,
5537.000,3.246,
5536.000,3.26928,
5535.000,3.29094,
5534.000,3.31143,
5533.000,3.33212,
5532.000,3.35527,
5531.000,3.38225,
5530.000,3.41191,
5529.000,3.44148,
5528.000,3.46912,
5527.000,3.49494,
5526.000,3.51995,
5525.000,3.54515,
5524.000,3.57137,
5523.000,3.5992,
5522.000,3.62854,
5521.000,3.65868,
5520.000,3.68891,
5519.000,3.71877,
5518.000,3.74788,
5517.000,3.77604,
5516.000,3.80346,
5515.000,3.83056,
5514.000,3.85757,
5513.000,3.88492,
5512.000,3.9135,
5511.000,3.94415,
5510.000,3.97656,
5509.000,4.00947,
5508.000,4.04207,
5507.000,4.07485,
5506.000,4.10869,
5505.000,4.14368,
5504.000,4.17918,
5503.000,4.21468,
5502.000,4.2501,
5501.000,4.28527,
5500.000,4.31978,
5499.000,4.35383,
5498.000,4.38857,
5497.000,4.42508,
5496.000,4.46297,
5495.000,4.50082,
5494.000,4.53802,
5493.000,4.57567,
5492.000,4.61492,
5491.000,4.65515,
5490.000,4.6947,
5489.000,4.73281,
5488.000,4.77019,
5487.000,4.80767,
5486.000,4.8457,
5485.000,4.88486,
5484.000,4.92568,
5483.000,4.96787,
5482.000,5.01057,
5481.000,5.05359,
5480.000,5.0977,
5479.000,5.14342,
5478.000,5.19017,
5477.000,5.23686,
5476.000,5.28254,
5475.000,5.3265,
5474.000,5.36837,
5473.000,5.40879,
5472.000,5.44948,
5471.000,5.49219,
5470.000,5.53787,
5469.000,5.58657,
5468.000,5.63747,
5467.000,5.68869,
5466.000,5.73814,
5465.000,5.78533,
5464.000,5.83187,
5463.000,5.87941,
5462.000,5.92792,
5461.000,5.97647,
5460.000,6.02492,
5459.000,6.07407,
5458.000,6.12431,
5457.000,6.17537,
5456.000,6.22709,
5455.000,6.27957,
5454.000,6.33253,
5453.000,6.38538,
5452.000,6.43788,
5451.000,6.4903,
5450.000,6.54288,
5449.000,6.59575,
5448.000,6.64883,
5447.000,6.70149,
5446.000,6.75291,
5445.000,6.80342,
5444.000,6.85468,
5443.000,6.90782,
5442.000,6.96244,
5441.000,7.01796,
5440.000,7.07459,
5439.000,7.13215,
5438.000,7.18919,
5437.000,7.24439,
5436.000,7.29808,
5435.000,7.35152,
5434.000,7.40515,
5433.000,7.45857,
5432.000,7.51165,
5431.000,7.56468,
5430.000,7.61801,
5429.000,7.67221,
5428.000,7.72732,
5427.000,7.78201,
5426.000,7.8347,
5425.000,7.88611,
5424.000,7.939,
5423.000,7.99451,
5422.000,8.05072,
5421.000,8.10522,
5420.000,8.15697,
5419.000,8.20546,
5418.000,8.25045,
5417.000,8.29318,
5416.000,8.33587,
5415.000,8.37946,
5414.000,8.4232,
5413.000,8.46654,
5412.000,8.50997,
5411.000,8.5535,
5410.000,8.5963,
5409.000,8.63848,
5408.000,8.68117,
5407.000,8.7241,
5406.000,8.76496,
5405.000,8.80197,
5404.000,8.83556,
5403.000,8.86678,
5402.000,8.89569,
5401.000,8.92257,
5400.000,8.9484,
5399.000,8.97318,
5398.000,8.99554,
5397.000,9.01489,
5396.000,9.03205,
5395.000,9.04757,
5394.000,9.06155,
5393.000,9.07483,
5392.000,9.08815,
5391.000,9.10028,
5390.000,9.1093,
5389.000,9.11577,
5388.000,9.1219,
5387.000,9.12788,
5386.000,9.13145,
5385.000,9.13138,
5384.000,9.12891,
5383.000,9.12497,
5382.000,9.11832,
5381.000,9.10825,
5380.000,9.09624,
5379.000,9.08299,
5378.000,9.06681,
5377.000,9.04701,
5376.000,9.02611,
5375.000,9.00676,
5374.000,8.98848,
5373.000,8.96907,
5372.000,8.94774,
5371.000,8.92522,
5370.000,8.90185,
5369.000,8.87728,
5368.000,8.85092,
5367.000,8.82195,
5366.000,8.78972,
5365.000,8.7549,
5364.000,8.71957,
5363.000,8.68532,
5362.000,8.65192,
5361.000,8.61819,
5360.000,8.58315,
5359.000,8.54576,
5358.000,8.50534,
5357.000,8.46289,
5356.000,8.42062,
5355.000,8.37985,
5354.000,8.34006,
5353.000,8.29996,
5352.000,8.25862,
5351.000,8.2154,
5350.000,8.17,
5349.000,8.12325,
5348.000,8.07661,
5347.000,8.03035,
5346.000,7.98348,
5345.000,7.93571,
5344.000,7.88791,
5343.000,7.84069,
5342.000,7.79424,
5341.000,7.74929,
5340.000,7.70674,
5339.000,7.66641,
5338.000,7.627,
5337.000,7.58725,
5336.000,7.54601,
5335.000,7.50198,
5334.000,7.45485,
5333.000,7.40637,
5332.000,7.35914,
5331.000,7.31433,
5330.000,7.2712,
5329.000,7.22831,
5328.000,7.18476,
5327.000,7.14027,
5326.000,7.09515,
5325.000,7.05034,
5324.000,7.00626,
5323.000,6.96217,
5322.000,6.9175,
5321.000,6.87301,
5320.000,6.82969,
5319.000,6.78744,
5318.000,6.74561,
5317.000,6.70431,
5316.000,6.6639,
5315.000,6.62346,
5314.000,6.58135,
5313.000,6.53735,
5312.000,6.4929,
5311.000,6.44901,
5310.000,6.40527,
5309.000,6.36123,
5308.000,6.31761,
5307.000,6.27529,
5306.000,6.23401,
5305.000,6.1931,
5304.000,6.15285,
5303.000,6.11393,
5302.000,6.07611,
5301.000,6.03832,
5300.000,6.00009,
5299.000,5.96171,
5298.000,5.92324,
5297.000,5.88396,
5296.000,5.84316,
5295.000,5.80079,
5294.000,5.75742,
5293.000,5.71374,
5292.000,5.67051,
5291.000,5.62898,
5290.000,5.59037,
5289.000,5.55452,
5288.000,5.51951,
5287.000,5.48342,
5286.000,5.44624,
5285.000,5.40938,
5284.000,5.37356,
5283.000,5.33798,
5282.000,5.30169,
5281.000,5.26489,
5280.000,5.22835,
5279.000,5.19228,
5278.000,5.1566,
5277.000,5.12158,
5276.000,5.08738,
5275.000,5.05332,
5274.000,5.01858,
5273.000,4.9834,
5272.000,4.94851,
5271.000,4.91374,
5270.000,4.87821,
5269.000,4.84188,
5268.000,4.80613,
5267.000,4.77235,
5266.000,4.74041,
5265.000,4.70889,
5264.000,4.67636,
5263.000,4.64222,
5262.000,4.60691,
5261.000,4.5717,
5260.000,4.53797,
5259.000,4.50633,
5258.000,4.47627,
5257.000,4.44639,
5256.000,4.41529,
5255.000,4.38254,
5254.000,4.34903,
5253.000,4.31608,
5252.000,4.28444,
5251.000,4.25388,
5250.000,4.22363,
5249.000,4.19285,
5248.000,4.16121,
5247.000,4.1292,
5246.000,4.09783,
5245.000,4.06782,
5244.000,4.03884,
5243.000,4.00988,
5242.000,3.98057,
5241.000,3.95152,
5240.000,3.92331,
5239.000,3.89581,
5238.000,3.86878,
5237.000,3.84224,
5236.000,3.81582,
5235.000,3.78883,
5234.000,3.76137,
5233.000,3.73469,
5232.000,3.70949,
5231.000,3.68438,
5230.000,3.657,
5229.000,3.62689,
5228.000,3.59594,
5227.000,3.56603,
5226.000,3.53739,
5225.000,3.50948,
5224.000,3.48223,
5223.000,3.45564,
5222.000,3.42916,
5221.000,3.40237,
5220.000,3.37566,
5219.000,3.34979,
5218.000,3.32505,
5217.000,3.30118,
5216.000,3.27788,
5215.000,3.25493,
5214.000,3.23209,
5213.000,3.20919,
5212.000,3.18634,
5211.000,3.16377,
5210.000,3.14156,
5209.000,3.11947,
5208.000,3.09685,
5207.000,3.07291,
5206.000,3.04765,
5205.000,3.02223,
5204.000,2.99836,
5203.000,2.97705,
5202.000,2.95808,
5201.000,2.94046,
5200.000,2.92308,
5199.000,2.90502,
5198.000,2.88555,
5197.000,2.86423,
5196.000,2.84125,
5195.000,2.81757,
5194.000,2.79475,
5193.000,2.77418,
5192.000,2.75633,
5191.000,2.74037,
5190.000,2.72458,
5189.000,2.70751,
5188.000,2.68872,
5187.000,2.66891,
5186.000,2.64925,
5185.000,2.63052,
5184.000,2.6127,
5183.000,2.59546,
5182.000,2.57867,
5181.000,2.56255,
5180.000,2.54717,
5179.000,2.5322,
5178.000,2.51703,
5177.000,2.50126,
5176.000,2.48502,
5175.000,2.46904,
5174.000,2.45414,
5173.000,2.44039,
5172.000,2.42685,
5171.000,2.41251,
5170.000,2.3973,
5169.000,2.38197,
5168.000,2.36711,
5167.000,2.35253,
5166.000,2.3376,
5165.000,2.3219,
5164.000,2.30559,
5163.000,2.2895,
5162.000,2.27486,
5161.000,2.26249,
5160.000,2.25218,
5159.000,2.2428,
5158.000,2.23306,
5157.000,2.22185,
5156.000,2.20849,
5155.000,2.19315,
5154.000,2.17702,
5153.000,2.16162,
5152.000,2.14781,
5151.000,2.13559,
5150.000,2.12463,
5149.000,2.11436,
5148.000,2.10403,
5147.000,2.09308,
5146.000,2.08167,
5145.000,2.07007,
5144.000,2.05795,
5143.000,2.04482,
5142.000,2.03116,
5141.000,2.01821,
5140.000,2.00663,
5139.000,1.99584,
5138.000,1.98481,
5137.000,1.97305,
5136.000,1.96064,
5135.000,1.94791,
5134.000,1.93553,
5133.000,1.92422,
5132.000,1.91396,
5131.000,1.90375,
5130.000,1.89272,
5129.000,1.88109,
5128.000,1.86987,
5127.000,1.85968,
5126.000,1.85031,
5125.000,1.84109,
5124.000,1.83155,
5123.000,1.82151,
5122.000,1.81101,
5121.000,1.80007,
5120.000,1.78893,
5119.000,1.77802,
5118.000,1.76767,
5117.000,1.75766,
5116.000,1.74746,
5115.000,1.73703,
5114.000,1.72679,
5113.000,1.7168,
5112.000,1.70639,
5111.000,1.6953,
5110.000,1.68432,
5109.000,1.6742,
5108.000,1.66435,
5107.000,1.65364,
5106.000,1.6419,
5105.000,1.62997,
5104.000,1.61848,
5103.000,1.60776,
5102.000,1.59867,
5101.000,1.59191,
5100.000,1.58649,
5099.000,1.57998,
5098.000,1.57096,
5097.000,1.56028,
5096.000,1.54962,
5095.000,1.53986,
5094.000,1.53099,
5093.000,1.52266,
5092.000,1.51416,
5091.000,1.50454,
5090.000,1.49375,
5089.000,1.48303,
5088.000,1.47383,
5087.000,1.46643,
5086.000,1.46022,
5085.000,1.45447,
5084.000,1.4486,
5083.000,1.4421,
5082.000,1.43477,
5081.000,1.42693,
5080.000,1.4191,
5079.000,1.41171,
5078.000,1.40509,
5077.000,1.39926,
5076.000,1.39355,
5075.000,1.38715,
5074.000,1.38014,
5073.000,1.37355,
5072.000,1.3682,
5071.000,1.3639,
5070.000,1.36004,
5069.000,1.35632,
5068.000,1.3526,
5067.000,1.34882,
5066.000,1.34524,
5065.000,1.34225,
5064.000,1.33948,
5063.000,1.33579,
5062.000,1.33051,
5061.000,1.32409,
5060.000,1.3174,
5059.000,1.3108,
5058.000,1.30457,
5057.000,1.29935,
5056.000,1.2956,
5055.000,1.29304,
5054.000,1.29113,
5053.000,1.2897,
5052.000,1.28856,
5051.000,1.28699,
5050.000,1.28454,
5049.000,1.28186,
5048.000,1.28016,
5047.000,1.27997,
5046.000,1.28067,
5045.000,1.28123,
5044.000,1.28092,
5043.000,1.27971,
5042.000,1.27844,
5041.000,1.27842,
5040.000,1.28029,
5039.000,1.28326,
5038.000,1.28569,
5037.000,1.28631,
5036.000,1.28513,
5035.000,1.28326,
5034.000,1.28226,
5033.000,1.2831,
5032.000,1.28547,
5031.000,1.28829,
5030.000,1.29094,
5029.000,1.2936,
5028.000,1.29648,
5027.000,1.29941,
5026.000,1.30233,
5025.000,1.3055,
5024.000,1.30885,
5023.000,1.3118,
5022.000,1.31417,
5021.000,1.31668,
5020.000,1.32015,
5019.000,1.32462,
5018.000,1.32958,
5017.000,1.33456,
5016.000,1.33907,
5015.000,1.34276,
5014.000,1.34609,
5013.000,1.35034,
5012.000,1.3563,
5011.000,1.3635,
5010.000,1.37102,
5009.000,1.37838,
5008.000,1.38521,
5007.000,1.39094,
5006.000,1.39572,
5005.000,1.40096,
5004.000,1.40806,
5003.000,1.41688,
5002.000,1.4261,
5001.000,1.43455,
5000.000,1.44161,
4999.000,1.44702,
4998.000,1.4515,
4997.000,1.45695,
4996.000,1.465,
4995.000,1.47527,
4994.000,1.48603,
4993.000,1.49633,
4992.000,1.50649,
4991.000,1.51683,
4990.000,1.52714,
4989.000,1.5375,
4988.000,1.54821,
4987.000,1.55885,
4986.000,1.56835,
4985.000,1.57645,
4984.000,1.58433,
4983.000,1.59345,
4982.000,1.6044,
4981.000,1.61703,
4980.000,1.63074,
4979.000,1.64435,
4978.000,1.65658,
4977.000,1.66719,
4976.000,1.67728,
4975.000,1.68813,
4974.000,1.70026,
4973.000,1.71362,
4972.000,1.72802,
4971.000,1.74295,
4970.000,1.75776,
4969.000,1.7723,
4968.000,1.78713,
4967.000,1.80266,
4966.000,1.8186,
4965.000,1.83435,
4964.000,1.84952,
4963.000,1.86404,
4962.000,1.87825,
4961.000,1.89306,
4960.000,1.90929,
4959.000,1.92667,
4958.000,1.94399,
4957.000,1.9606,
4956.000,1.97701,
4955.000,1.99398,
4954.000,2.01149,
4953.000,2.02925,
4952.000,2.04723,
4951.000,2.06544,
4950.000,2.08351,
4949.000,2.10118,
4948.000,2.11877,
4947.000,2.13681,
4946.000,2.15545,
4945.000,2.17471,
4944.000,2.19485,
4943.000,2.21593,
4942.000,2.23737,
4941.000,2.25832,
4940.000,2.27844,
4939.000,2.29795,
4938.000,2.3172,
4937.000,2.33655,
4936.000,2.35642,
4935.000,2.37714,
4934.000,2.39861,
4933.000,2.42052,
4932.000,2.44275,
4931.000,2.46544,
4930.000,2.48882,
4929.000,2.51305,
4928.000,2.53805,
4927.000,2.56342,
4926.000,2.58867,
4925.000,2.61349,
4924.000,2.63779,
4923.000,2.66152,
4922.000,2.68485,
4921.000,2.70834,
4920.000,2.73265,
4919.000,2.75794,
4918.000,2.78399,
4917.000,2.81084,
4916.000,2.83892,
4915.000,2.86822,
4914.000,2.89798,
4913.000,2.92717,
4912.000,2.95509,
4911.000,2.98156,
4910.000,3.00724,
4909.000,3.03376,
4908.000,3.06277,
4907.000,3.09438,
4906.000,3.12695,
4905.000,3.15869,
4904.000,3.189,
4903.000,3.21832,
4902.000,3.24732,
4901.000,3.27669,
4900.000,3.307,
4899.000,3.33828,
4898.000,3.36997,
4897.000,3.40175,
4896.000,3.43411,
4895.000,3.4677,
4894.000,3.50245,
4893.000,3.53771,
4892.000,3.57289,
4891.000,3.60774,
4890.000,3.64233,
4889.000,3.67719,
4888.000,3.71314,
4887.000,3.75048,
4886.000,3.78849,
4885.000,3.8261,
4884.000,3.86293,
4883.000,3.89946,
4882.000,3.93629,
4881.000,3.97368,
4880.000,4.01157,
4879.000,4.04989,
4878.000,4.08877,
4877.000,4.1286,
4876.000,4.16967,
4875.000,4.21177,
4874.000,4.25435,
4873.000,4.29714,
4872.000,4.34027,
4871.000,4.38385,
4870.000,4.42769,
4869.000,4.47164,
4868.000,4.51597,
4867.000,4.56109,
4866.000,4.607,
4865.000,4.65302,
4864.000,4.69799,
4863.000,4.74108,
4862.000,4.78279,
4861.000,4.82494,
4860.000,4.86933,
4859.000,4.9161,
4858.000,4.96386,
4857.000,5.01129,
4856.000,5.05829,
4855.000,5.10558,
4854.000,5.15387,
4853.000,5.20339,
4852.000,5.25379,
4851.000,5.30424,
4850.000,5.35408,
4849.000,5.4035,
4848.000,5.45323,
4847.000,5.50363,
4846.000,5.5546,
4845.000,5.60617,
4844.000,5.65854,
4843.000,5.71127,
4842.000,5.76336,
4841.000,5.81422,
4840.000,5.8643,
4839.000,5.91448,
4838.000,5.9655,
4837.000,6.01785,
4836.000,6.07148,
4835.000,6.12536,
4834.000,6.17794,
4833.000,6.22865,
4832.000,6.27846,
4831.000,6.32884,
4830.000,6.38046,
4829.000,6.43316,
4828.000,6.48647,
4827.000,6.53975,
4826.000,6.59233,
4825.000,6.64377,
4824.000,6.69402,
4823.000,6.74305,
4822.000,6.79081,
4821.000,6.83757,
4820.000,6.88393,
4819.000,6.93022,
4818.000,6.97615,
4817.000,7.02103,
4816.000,7.06433,
4815.000,7.10605,
4814.000,7.14677,
4813.000,7.18719,
4812.000,7.2273,
4811.000,7.26622,
4810.000,7.30308,
4809.000,7.33782,
4808.000,7.37081,
4807.000,7.40217,
4806.000,7.4319,
4805.000,7.46022,
4804.000,7.48718,
4803.000,7.51233,
4802.000,7.53543,
4801.000,7.55684,
4800.000,7.57673,
4799.000,7.59427,
4798.000,7.60853,
4797.000,7.61988,
4796.000,7.62945,
4795.000,7.63768,
4794.000,7.64428,
4793.000,7.64911,
4792.000,7.65222,
4791.000,7.6531,
4790.000,7.65127,
4789.000,7.64722,
4788.000,7.64201,
4787.000,7.63582,
4786.000,7.62779,
4785.000,7.61714,
4784.000,7.60356,
4783.000,7.58669,
4782.000,7.56657,
4781.000,7.54444,
4780.000,7.52201,
4779.000,7.4999,
4778.000,7.47744,
4777.000,7.45391,
4776.000,7.42895,
4775.000,7.40189,
4774.000,7.37191,
4773.000,7.33924,
4772.000,7.30539,
4771.000,7.27173,
4770.000,7.2385,
4769.000,7.20523,
4768.000,7.17129,
4767.000,7.13595,
4766.000,7.09881,
4765.000,7.06059,
4764.000,7.02259,
4763.000,6.98518,
4762.000,6.94725,
4761.000,6.90748,
4760.000,6.86555,
4759.000,6.82211,
4758.000,6.77807,
4757.000,6.73431,
4756.000,6.69136,
4755.000,6.64913,
4754.000,6.60708,
4753.000,6.56463,
4752.000,6.52136,
4751.000,6.47697,
4750.000,6.4316,
4749.000,6.38612,
4748.000,6.3415,
4747.000,6.29791,
4746.000,6.25476,
4745.000,6.2115,
4744.000,6.1679,
4743.000,6.12383,
4742.000,6.07941,
4741.000,6.0352,
4740.000,5.99178,
4739.000,5.94899,
4738.000,5.90631,
4737.000,5.86369,
4736.000,5.82148,
4735.000,5.7797,
4734.000,5.73784,
4733.000,5.69563,
4732.000,5.65326,
4731.000,5.61102,
4730.000,5.56905,
4729.000,5.52762,
4728.000,5.48702,
4727.000,5.4469,
4726.000,5.40631,
4725.000,5.36456,
4724.000,5.32183,
4723.000,5.27885,
4722.000,5.23635,
4721.000,5.19481,
4720.000,5.15451,
4719.000,5.11536,
4718.000,5.07708,
4717.000,5.03933,
4716.000,5.0018,
4715.000,4.96418,
4714.000,4.92636,
4713.000,4.88854,
4712.000,4.8508,
4711.000,4.81277,
4710.000,4.77407,
4709.000,4.73502,
4708.000,4.69655,
4707.000,4.65945,
4706.000,4.62376,
4705.000,4.58878,
4704.000,4.5535,
4703.000,4.51725,
4702.000,4.4804,
4701.000,4.44414,
4700.000,4.40939,
4699.000,4.37575,
4698.000,4.34199,
4697.000,4.30727,
4696.000,4.27161,
4695.000,4.23544,
4694.000,4.19914,
4693.000,4.16292,
4692.000,4.12673,
4691.000,4.09033,
4690.000,4.05372,
4689.000,4.01758,
4688.000,3.98269,
4687.000,3.949,
4686.000,3.91554,
4685.000,3.88147,
4684.000,3.84684,
4683.000,3.81231,
4682.000,3.77865,
4681.000,3.74639,
4680.000,3.7156,
4679.000,3.68567,
4678.000,3.65569,
4677.000,3.62526,
4676.000,3.59479,
4675.000,3.56498,
4674.000,3.53617,
4673.000,3.50827,
4672.000,3.48096,
4671.000,3.45373,
4670.000,3.4259,
4669.000,3.39703,
4668.000,3.36732,
4667.000,3.33757,
4666.000,3.30847,
4665.000,3.28025,
4664.000,3.25282,
4663.000,3.22614,
4662.000,3.20018,
4661.000,3.17472,
4660.000,3.14936,
4659.000,3.12385,
4658.000,3.09824,
4657.000,3.07262,
4656.000,3.04705,
4655.000,3.02154,
4654.000,2.99612,
4653.000,2.97058,
4652.000,2.94461,
4651.000,2.91836,
4650.000,2.89266,
4649.000,2.86829,
4648.000,2.84521,
4647.000,2.82261,
4646.000,2.79965,
4645.000,2.77592,
4644.000,2.7512,
4643.000,2.72556,
4642.000,2.6995,
4641.000,2.67381,
4640.000,2.64891,
4639.000,2.62481,
4638.000,2.60153,
4637.000,2.57925,
4636.000,2.55782,
4635.000,2.53654,
4634.000,2.51465,
4633.000,2.49191,
4632.000,2.46853,
4631.000,2.44499,
4630.000,2.4219,
4629.000,2.39985,
4628.000,2.37904,
4627.000,2.35922,
4626.000,2.34022,
4625.000,2.32223,
4624.000,2.30524,
4623.000,2.28848,
4622.000,2.27091,
4621.000,2.2521,
4620.000,2.23244,
4619.000,2.21247,
4618.000,2.19242,
4617.000,2.17243,
4616.000,2.15288,
4615.000,2.13429,
4614.000,2.117,
4613.000,2.10084,
4612.000,2.08517,
4611.000,2.06931,
4610.000,2.05302,
4609.000,2.0367,
4608.000,2.02103,
4607.000,2.00622,
4606.000,1.99178,
4605.000,1.97694,
4604.000,1.96129,
4603.000,1.9451,
4602.000,1.92904,
4601.000,1.91371,
4600.000,1.89935,
4599.000,1.88588,
4598.000,1.87298,
4597.000,1.8602,
4596.000,1.847,
4595.000,1.83304,
4594.000,1.81847,
4593.000,1.80394,
4592.000,1.79038,
4591.000,1.77836,
4590.000,1.76759,
4589.000,1.75686,
4588.000,1.74485,
4587.000,1.7311,
4586.000,1.71637,
4585.000,1.70179,
4584.000,1.68803,
4583.000,1.67517,
4582.000,1.66302,
4581.000,1.65129,
4580.000,1.63962,
4579.000,1.62776,
4578.000,1.61585,
4577.000,1.60428,
4576.000,1.59315,
4575.000,1.58214,
4574.000,1.5708,
4573.000,1.55896,
4572.000,1.54692,
4571.000,1.53542,
4570.000,1.52512,
4569.000,1.51583,
4568.000,1.50635,
4567.000,1.49539,
4566.000,1.48273,
4565.000,1.46941,
4564.000,1.45683,
4563.000,1.44582,
4562.000,1.4363,
4561.000,1.42736,
4560.000,1.41769,
4559.000,1.40627,
4558.000,1.39319,
4557.000,1.37957,
4556.000,1.36655,
4555.000,1.35452,
4554.000,1.34305,
4553.000,1.33145,
4552.000,1.31927,
4551.000,1.30675,
4550.000,1.29473,
4549.000,1.28396,
4548.000,1.27436,
4547.000,1.26511,
4546.000,1.25554,
4545.000,1.24563,
4544.000,1.23553,
4543.000,1.22501,
4542.000,1.21382,
4541.000,1.20225,
4540.000,1.19116,
4539.000,1.18134,
4538.000,1.17283,
4537.000,1.1649,
4536.000,1.15649,
4535.000,1.14687,
4534.000,1.13622,
4533.000,1.12535,
4532.000,1.11507,
4531.000,1.10559,
4530.000,1.09654,
4529.000,1.08736,
4528.000,1.07763,
4527.000,1.06716,
4526.000,1.05611,
4525.000,1.04496,
4524.000,1.03427,
4523.000,1.02447,
4522.000,1.01568,
4521.000,1.00795,
4520.000,1.00129,
4519.000,0.995605,
4518.000,0.990569,
4517.000,0.985626,
4516.000,0.980219,
4515.000,0.974049,
4514.000,0.967129,
4513.000,0.95961,
4512.000,0.951604,
4511.000,0.943196,
4510.000,0.934577,
4509.000,0.926115,
4508.000,0.918231,
4507.000,0.911072,
4506.000,0.90427,
4505.000,0.897134,
4504.000,0.889345,
4503.000,0.881487,
4502.000,0.874669,
4501.000,0.869442,
4500.000,0.865209,
4499.000,0.860805,
4498.000,0.855565,
4497.000,0.849713,
4496.000,0.843849,
4495.000,0.838276,
4494.000,0.83289,
4493.000,0.827596,
4492.000,0.822662,
4491.000,0.81858,
4490.000,0.815457,
4489.000,0.812617,
4488.000,0.809035,
4487.000,0.804272,
4486.000,0.798839,
4485.000,0.793584,
4484.000,0.788951,
4483.000,0.784996,
4482.000,0.781819,
4481.000,0.779623,
4480.000,0.778396,
4479.000,0.777737,
4478.000,0.776987,
4477.000,0.775498,
4476.000,0.77297,
4475.000,0.769731,
4474.000,0.766579,
4473.000,0.764083,
4472.000,0.762096,
4471.000,0.760097,
4470.000,0.757868,
4469.000,0.755687,
4468.000,0.753952,
4467.000,0.752843,
4466.000,0.752301,
4465.000,0.752053,
4464.000,0.751675,
4463.000,0.750851,
4462.000,0.749582,
4461.000,0.748007,
4460.000,0.746164,
4459.000,0.744133,
4458.000,0.7423,
4457.000,0.741191,
4456.000,0.741,
4455.000,0.741498,
4454.000,0.742334,
4453.000,0.743172,
4452.000,0.743597,
4451.000,0.743231,
4450.000,0.742115,
4449.000,0.74078,
4448.000,0.739803,
4447.000,0.739418,
4446.000,0.739537,
4445.000,0.739936,
4444.000,0.7404,
4443.000,0.740929,
4442.000,0.741798,
4441.000,0.743231,
4440.000,0.745033,
4439.000,0.74674,
4438.000,0.748149,
4437.000,0.74952,
4436.000,0.751186,
4435.000,0.753246,
4434.000,0.755738,
4433.000,0.758787,
4432.000,0.762373,
4431.000,0.766103,
4430.000,0.769403,
4429.000,0.771869,
4428.000,0.77337,
4427.000,0.774031,
4426.000,0.774258,
4425.000,0.774661,
4424.000,0.775796,
4423.000,0.777936,
4422.000,0.781029,
4421.000,0.784741,
4420.000,0.788528,
4419.000,0.79192,
4418.000,0.794855,
4417.000,0.797599,
4416.000,0.800305,
4415.000,0.802912,
4414.000,0.805597,
4413.000,0.808983,
4412.000,0.813571,
4411.000,0.819093,
4410.000,0.824707,
4409.000,0.829797,
4408.000,0.834395,
4407.000,0.838943,
4406.000,0.843862,
4405.000,0.849237,
4404.000,0.85473,
4403.000,0.859721,
4402.000,0.863733,
4401.000,0.866843,
4400.000,0.869685,
4399.000,0.87309,
4398.000,0.877694,
4397.000,0.883675,
4396.000,0.890679,
4395.000,0.898015,
4394.000,0.905103,
4393.000,0.911716,
4392.000,0.917796,
4391.000,0.923252,
4390.000,0.928142,
4389.000,0.932914,
4388.000,0.938192,
4387.000,0.944269,
4386.000,0.950972,
4385.000,0.957982,
4384.000,0.965144,
4383.000,0.972472,
4382.000,0.980054,
4381.000,0.987954,
4380.000,0.996067,
4379.000,1.00404,
4378.000,1.01153,
4377.000,1.01855,
4376.000,1.02555,
4375.000,1.03304,
4374.000,1.04121,
4373.000,1.04987,
4372.000,1.0587,
4371.000,1.06748,
4370.000,1.0762,
4369.000,1.08505,
4368.000,1.09424,
4367.000,1.10394,
4366.000,1.11436,
4365.000,1.12563,
4364.000,1.13757,
4363.000,1.14946,
4362.000,1.16051,
4361.000,1.17059,
4360.000,1.18031,
4359.000,1.19029,
4358.000,1.20058,
4357.000,1.2109,
4356.000,1.22125,
4355.000,1.23231,
4354.000,1.24489,
4353.000,1.25912,
4352.000,1.27405,
4351.000,1.28832,
4350.000,1.30132,
4349.000,1.31372,
4348.000,1.32669,
4347.000,1.34088,
4346.000,1.35597,
4345.000,1.37132,
4344.000,1.3866,
4343.000,1.40185,
4342.000,1.41709,
4341.000,1.43215,
4340.000,1.44687,
4339.000,1.46137,
4338.000,1.47607,
4337.000,1.49147,
4336.000,1.50789,
4335.000,1.52539,
4334.000,1.54389,
4333.000,1.56327,
4332.000,1.58316,
4331.000,1.60294,
4330.000,1.62195,
4329.000,1.63989,
4328.000,1.65694,
4327.000,1.67361,
4326.000,1.69051,
4325.000,1.70829,
4324.000,1.72741,
4323.000,1.74789,
4322.000,1.7692,
4321.000,1.79051,
4320.000,1.81113,
4319.000,1.83084,
4318.000,1.85008,
4317.000,1.86975,
4316.000,1.89043,
4315.000,1.91196,
4314.000,1.93366,
4313.000,1.95499,
4312.000,1.97598,
4311.000,1.99691,
4310.000,2.01797,
4309.000,2.03917,
4308.000,2.0606,
4307.000,2.08262,
4306.000,2.10568,
4305.000,2.12998,
4304.000,2.15506,
4303.000,2.17994,
4302.000,2.20386,
4301.000,2.22684,
4300.000,2.24959,
4299.000,2.27293,
4298.000,2.29722,
4297.000,2.32246,
4296.000,2.34844,
4295.000,2.37484,
4294.000,2.40127,
4293.000,2.42742,
4292.000,2.45306,
4291.000,2.47802,
4290.000,2.50235,
4289.000,2.52653,
4288.000,2.5514,
4287.000,2.57769,
4286.000,2.60554,
4285.000,2.63443,
4284.000,2.66354,
4283.000,2.69219,
4282.000,2.72017,
4281.000,2.74778,
4280.000,2.77542,
4279.000,2.80345,
4278.000,2.83229,
4277.000,2.8625,
4276.000,2.89436,
4275.000,2.92749,
4274.000,2.96097,
4273.000,2.99412,
4272.000,3.02694,
4271.000,3.05986,
4270.000,3.09328,
4269.000,3.12735,
4268.000,3.16205,
4267.000,3.19723,
4266.000,3.23266,
4265.000,3.26827,
4264.000,3.30428,
4263.000,3.3411,
4262.000,3.379,
4261.000,3.41789,
4260.000,3.45749,
4259.000,3.49768,
4258.000,3.53859,
4257.000,3.5803,
4256.000,3.62252,
4255.000,3.66464,
4254.000,3.70634,
4253.000,3.74784,
4252.000,3.78963,
4251.000,3.83205,
4250.000,3.8752,
4249.000,3.9191,
4248.000,3.96373,
4247.000,4.00898,
4246.000,4.05467,
4245.000,4.10058,
4244.000,4.14625,
4243.000,4.19103,
4242.000,4.23459,
4241.000,4.27744,
4240.000,4.32067,
4239.000,4.36505,
4238.000,4.41044,
4237.000,4.45606,
4236.000,4.5012,
4235.000,4.54563,
4234.000,4.5895,
4233.000,4.63289,
4232.000,4.67569,
4231.000,4.71767,
4230.000,4.7588,
4229.000,4.79926,
4228.000,4.83917,
4227.000,4.87848,
4226.000,4.91723,
4225.000,4.95567,
4224.000,4.99395,
4223.000,5.03187,
4222.000,5.06897,
4221.000,5.10487,
4220.000,5.13953,
4219.000,5.17327,
4218.000,5.20664,
4217.000,5.24001,
4216.000,5.27303,
4215.000,5.3049,
4214.000,5.33524,
4213.000,5.36464,
4212.000,5.3939,
4211.000,5.42301,
4210.000,5.45102,
4209.000,5.47703,
4208.000,5.5008,
4207.000,5.52264,
4206.000,5.5428,
4205.000,5.56133,
4204.000,5.57822,
4203.000,5.59356,
4202.000,5.60738,
4201.000,5.61943,
4200.000,5.62925,
4199.000,5.63653,
4198.000,5.64147,
4197.000,5.64448,
4196.000,5.64564,
4195.000,5.64453,
4194.000,5.64074,
4193.000,5.63428,
4192.000,5.62546,
4191.000,5.61468,
4190.000,5.60226,
4189.000,5.58834,
4188.000,5.57281,
4187.000,5.55547,
4186.000,5.53654,
4185.000,5.51666,
4184.000,5.49611,
4183.000,5.47443,
4182.000,5.45093,
4181.000,5.42562,
4180.000,5.39926,
4179.000,5.37258,
4178.000,5.34561,
4177.000,5.31773,
4176.000,5.28831,
4175.000,5.25727,
4174.000,5.22512,
4173.000,5.19263,
4172.000,5.16025,
4171.000,5.12798,
4170.000,5.09548,
4169.000,5.06235,
4168.000,5.02833,
4167.000,4.99346,
4166.000,4.9582,
4165.000,4.92304,
4164.000,4.88805,
4163.000,4.85287,
4162.000,4.81728,
4161.000,4.78151,
4160.000,4.74585,
4159.000,4.71023,
4158.000,4.67438,
4157.000,4.63828,
4156.000,4.60214,
4155.000,4.56609,
4154.000,4.52996,
4153.000,4.49354,
4152.000,4.45676,
4151.000,4.4198,
4150.000,4.383,
4149.000,4.34677,
4148.000,4.31137,
4147.000,4.2768,
4146.000,4.24277,
4145.000,4.20895,
4144.000,4.17518,
4143.000,4.14153,
4142.000,4.10804,
4141.000,4.07447,
4140.000,4.04032,
4139.000,4.0054,
4138.000,3.97019,
4137.000,3.93553,
4136.000,3.90193,
4135.000,3.86922,
4134.000,3.83703,
4133.000,3.80505,
4132.000,3.77299,
4131.000,3.74047,
4130.000,3.70736,
4129.000,3.67409,
4128.000,3.64133,
4127.000,3.6094,
4126.000,3.57807,
4125.000,3.54689,
4124.000,3.51569,
4123.000,3.48468,
4122.000,3.45421,
4121.000,3.42446,
4120.000,3.39534,
4119.000,3.36641,
4118.000,3.33716,
4117.000,3.30725,
4116.000,3.27672,
4115.000,3.24599,
4114.000,3.21568,
4113.000,3.18619,
4112.000,3.15741,
4111.000,3.12889,
4110.000,3.10023,
4109.000,3.0714,
4108.000,3.0426,
4107.000,3.01399,
4106.000,2.98559,
4105.000,2.95747,
4104.000,2.9298,
4103.000,2.90268,
4102.000,2.87601,
4101.000,2.84954,
4100.000,2.82303,
4099.000,2.79633,
4098.000,2.76938,
4097.000,2.74212,
4096.000,2.71467,
4095.000,2.68747,
4094.000,2.6611,
4093.000,2.63565,
4092.000,2.61056,
4091.000,2.58507,
4090.000,2.55895,
4089.000,2.53277,
4088.000,2.50725,
4087.000,2.4825,
4086.000,2.45793,
4085.000,2.43285,
4084.000,2.40704,
4083.000,2.38103,
4082.000,2.35568,
4081.000,2.33155,
4080.000,2.30856,
4079.000,2.28616,
4078.000,2.26394,
4077.000,2.24185,
4076.000,2.22003,
4075.000,2.19835,
4074.000,2.17648,
4073.000,2.15427,
4072.000,2.132,
4071.000,2.11011,
4070.000,2.08874,
4069.000,2.06765,
4068.000,2.04656,
4067.000,2.02546,
4066.000,2.00464,
4065.000,1.98431,
4064.000,1.96438,
4063.000,1.94454,
4062.000,1.92453,
4061.000,1.90434,
4060.000,1.88426,
4059.000,1.8646,
4058.000,1.84547,
4057.000,1.82662,
4056.000,1.80766,
4055.000,1.78841,
4054.000,1.76911,
4053.000,1.75023,
4052.000,1.73215,
4051.000,1.71504,
4050.000,1.69877,
4049.000,1.68298,
4048.000,1.66708,
4047.000,1.65043,
4046.000,1.63285,
4045.000,1.61485,
4044.000,1.59742,
4043.000,1.58133,
4042.000,1.56667,
4041.000,1.55286,
4040.000,1.53926,
4039.000,1.52558,
4038.000,1.51178,
4037.000,1.49789,
4036.000,1.4839,
4035.000,1.46989,
4034.000,1.45614,
4033.000,1.44284,
4032.000,1.42989,
4031.000,1.41695,
4030.000,1.40378,
4029.000,1.39044,
4028.000,1.37729,
4027.000,1.36485,
4026.000,1.35347,
4025.000,1.34295,
4024.000,1.33247,
4023.000,1.32105,
4022.000,1.30847,
4021.000,1.29551,
4020.000,1.28318,
4019.000,1.27173,
4018.000,1.26056,
4017.000,1.249,
4016.000,1.23699,
4015.000,1.22487,
4014.000,1.21285,
4013.000,1.20104,
4012.000,1.18978,
4011.000,1.17957,
4010.000,1.17041,
4009.000,1.16154,
4008.000,1.15188,
4007.000,1.14091,
4006.000,1.12901,
4005.000,1.11699,
4004.000,1.10559,
4003.000,1.0952,
4002.000,1.08585,
4001.000,1.07724,
4000.000,1.06888,
3999.000,1.06031,
3998.000,1.05129,
3997.000,1.04179,
3996.000,1.03183,
3995.000,1.02148,
3994.000,1.01104,
3993.000,1.0009,
3992.000,0.991082,
3991.000,0.981151,
3990.000,0.970608,
3989.000,0.959484,
3988.000,0.948412,
3987.000,0.938048,
3986.000,0.928463,
3985.000,0.919156,
3984.000,0.909595,
3983.000,0.899722,
3982.000,0.889874,
3981.000,0.880238,
3980.000,0.87052,
3979.000,0.860243,
3978.000,0.849414,
3977.000,0.838771,
3976.000,0.829269,
3975.000,0.821233,
3974.000,0.81405,
3973.000,0.806642,
3972.000,0.798159,
3971.000,0.788375,
3970.000,0.77766,
3969.000,0.766811,
3968.000,0.756825,
3967.000,0.748453,
3966.000,0.741716,
3965.000,0.735785,
3964.000,0.72949,
3963.000,0.722131,
3962.000,0.71387,
3961.000,0.705364,
3960.000,0.697034,
3959.000,0.688771,
3958.000,0.680308,
3957.000,0.671722,
3956.000,0.663445,
3955.000,0.655823,
3954.000,0.648827,
3953.000,0.642239,
3952.000,0.635969,
3951.000,0.630059,
3950.000,0.624448,
3949.000,0.618908,
3948.000,0.613249,
3947.000,0.607495,
3946.000,0.601769,
3945.000,0.596003,
3944.000,0.589856,
3943.000,0.583024,
3942.000,0.575675,
3941.000,0.568498,
3940.000,0.562229,
3939.000,0.557125,
3938.000,0.552847,
3937.000,0.548808,
3936.000,0.544626,
3935.000,0.540286,
3934.000,0.535942,
3933.000,0.531654,
3932.000,0.527317,
3931.000,0.522883,
3930.000,0.518611,
3929.000,0.514896,
3928.000,0.511864,
3927.000,0.509209,
3926.000,0.506453,
3925.000,0.503327,
3924.000,0.499857,
3923.000,0.496151,
3922.000,0.492228,
3921.000,0.48809,
3920.000,0.483874,
3919.000,0.479796,
3918.000,0.476028,
3917.000,0.472665,
3916.000,0.46974,
3915.000,0.467169,
3914.000,0.464746,
3913.000,0.462313,
3912.000,0.459929,
3911.000,0.4578,
3910.000,0.455988,
3909.000,0.454323,
3908.000,0.452602,
3907.000,0.450779,
3906.000,0.44892,
3905.000,0.447078,
3904.000,0.445253,
3903.000,0.443395,
3902.000,0.441408,
3901.000,0.439206,
3900.000,0.43688,
3899.000,0.434759,
3898.000,0.433093,
3897.000,0.431671,
3896.000,0.42998,
3895.000,0.42784,
3894.000,0.425758,
3893.000,0.424503,
3892.000,0.424226,
3891.000,0.424126,
3890.000,0.42319,
3889.000,0.421251,
3888.000,0.419001,
3887.000,0.417133,
3886.000,0.415727,
3885.000,0.414395,
3884.000,0.412929,
3883.000,0.41165,
3882.000,0.410948,
3881.000,0.410732,
3880.000,0.410467,
3879.000,0.409722,
3878.000,0.408773,
3877.000,0.40839,
3876.000,0.408967,
3875.000,0.410013,
3874.000,0.410546,
3873.000,0.409927,
3872.000,0.408292,
3871.000,0.406214,
3870.000,0.404286,
3869.000,0.403008,
3868.000,0.402666,
3867.000,0.403133,
3866.000,0.403862,
3865.000,0.404334,
3864.000,0.40454,
3863.000,0.404862,
3862.000,0.405507,
3861.000,0.406245,
3860.000,0.406719,
3859.000,0.406847,
3858.000,0.406825,
3857.000,0.406927,
3856.000,0.407273,
3855.000,0.407697,
3854.000,0.407835,
3853.000,0.407524,
3852.000,0.407146,
3851.000,0.407113,
3850.000,0.407212,
3849.000,0.40704,
3848.000,0.40666,
3847.000,0.406452,
3846.000,0.406662,
3845.000,0.407281,
3844.000,0.40828,
3843.000,0.409786,
3842.000,0.411968,
3841.000,0.41472,
3840.000,0.417418,
3839.000,0.419139,
3838.000,0.419374,
3837.000,0.418595,
3836.000,0.417892,
3835.000,0.418013,
3834.000,0.418955,
3833.000,0.420367,
3832.000,0.42201,
3831.000,0.423773,
3830.000,0.425513,
3829.000,0.426996,
3828.000,0.427988,
3827.000,0.428494,
3826.000,0.428941,
3825.000,0.430064,
3824.000,0.432396,
3823.000,0.43575,
3822.000,0.439195,
3821.000,0.441771,
3820.000,0.443457,
3819.000,0.445195,
3818.000,0.447608,
3817.000,0.450124,
3816.000,0.451575,
3815.000,0.451529,
3814.000,0.450971,
3813.000,0.451333,
3812.000,0.453201,
3811.000,0.456346,
3810.000,0.460369,
3809.000,0.46482,
3808.000,0.469042,
3807.000,0.472409,
3806.000,0.474865,
3805.000,0.476988,
3804.000,0.479311,
3803.000,0.48186,
3802.000,0.484477,
3801.000,0.487168,
3800.000,0.490049,
3799.000,0.49328,
3798.000,0.49692,
3797.000,0.500689,
3796.000,0.503927,
3795.000,0.506068,
3794.000,0.507461,
3793.000,0.50937,
3792.000,0.512853,
3791.000,0.517834,
3790.000,0.523394,
3789.000,0.528749,
3788.000,0.533736,
3787.000,0.538472,
3786.000,0.542951,
3785.000,0.547142,
3784.000,0.55133,
3783.000,0.556086,
3782.000,0.561816,
3781.000,0.568308,
3780.000,0.574758,
3779.000,0.580356,
3778.000,0.584884,
3777.000,0.58877,
3776.000,0.59268,
3775.000,0.597265,
3774.000,0.603134,
3773.000,0.610618,
3772.000,0.619301,
3771.000,0.627993,
3770.000,0.635477,
3769.000,0.641398,
3768.000,0.646293,
3767.000,0.650872,
3766.000,0.655668,
3765.000,0.661218,
3764.000,0.668035,
3763.000,0.676206,
3762.000,0.685273,
3761.000,0.694564,
3760.000,0.703577,
3759.000,0.712098,
3758.000,0.720066,
3757.000,0.727688,
3756.000,0.735791,
3755.000,0.745759,
3754.000,0.75857,
3753.000,0.773716,
3752.000,0.789076,
3751.000,0.801994,
3750.000,0.811007,
3749.000,0.816785,
3748.000,0.821779,
3747.000,0.82893,
3746.000,0.839662,
3745.000,0.852386,
3744.000,0.863005,
3743.000,0.868972,
3742.000,0.872879,
3741.000,0.879105,
3740.000,0.889482,
3739.000,0.903866,
3738.000,0.921281,
3737.000,0.939786,
3736.000,0.956608,
3735.000,0.969645,
3734.000,0.979249,
3733.000,0.987689,
3732.000,0.99693,
3731.000,1.00773,
3730.000,1.02048,
3729.000,1.03567,
3728.000,1.05312,
3727.000,1.07146,
3726.000,1.08881,
3725.000,1.10436,
3724.000,1.11886,
3723.000,1.13328,
3722.000,1.14795,
3721.000,1.16288,
3720.000,1.17824,
3719.000,1.19427,
3718.000,1.21107,
3717.000,1.22868,
3716.000,1.24736,
3715.000,1.26759,
3714.000,1.28938,
3713.000,1.31146,
3712.000,1.33151,
3711.000,1.34791,
3710.000,1.36145,
3709.000,1.37458,
3708.000,1.38936,
3707.000,1.40645,
3706.000,1.42561,
3705.000,1.44654,
3704.000,1.46886,
3703.000,1.49157,
3702.000,1.51305,
3701.000,1.5321,
3700.000,1.54916,
3699.000,1.5661,
3698.000,1.58479,
3697.000,1.60551,
3696.000,1.627,
3695.000,1.64815,
3694.000,1.66912,
3693.000,1.69072,
3692.000,1.71321,
3691.000,1.73611,
3690.000,1.7587,
3689.000,1.7801,
3688.000,1.79928,
3687.000,1.81638,
3686.000,1.83358,
3685.000,1.85316,
3684.000,1.87514,
3683.000,1.89793,
3682.000,1.92048,
3681.000,1.94298,
3680.000,1.96597,
3679.000,1.98961,
3678.000,2.01414,
3677.000,2.0397,
3676.000,2.06532,
3675.000,2.08924,
3674.000,2.11141,
3673.000,2.13404,
3672.000,2.15851,
3671.000,2.18361,
3670.000,2.2073,
3669.000,2.22937,
3668.000,2.25156,
3667.000,2.27504,
3666.000,2.29905,
3665.000,2.32231,
3664.000,2.34425,
3663.000,2.36518,
3662.000,2.38588,
3661.000,2.40705,
3660.000,2.42883,
3659.000,2.45091,
3658.000,2.47311,
3657.000,2.49564,
3656.000,2.51907,
3655.000,2.54372,
3654.000,2.56917,
3653.000,2.59372,
3652.000,2.61519,
3651.000,2.63344,
3650.000,2.65192,
3649.000,2.6756,
3648.000,2.7062,
3647.000,2.73963,
3646.000,2.77034,
3645.000,2.79645,
3644.000,2.81898,
3643.000,2.83904,
3642.000,2.85736,
3641.000,2.87491,
3640.000,2.89271,
3639.000,2.91125,
3638.000,2.93037,
3637.000,2.9496,
3636.000,2.96856,
3635.000,2.98672,
3634.000,3.0035,
3633.000,3.01848,
3632.000,3.0314,
3631.000,3.04228,
3630.000,3.05274,
3629.000,3.06704,
3628.000,3.08932,
3627.000,3.1189,
3626.000,3.14941,
3625.000,3.1734,
3624.000,3.18768,
3623.000,3.19427,
3622.000,3.1972,
3621.000,3.19972,
3620.000,3.20432,
3619.000,3.2134,
3618.000,3.228,
3617.000,3.24596,
3616.000,3.26252,
3615.000,3.27367,
3614.000,3.2786,
3613.000,3.2796,
3612.000,3.27975,
3611.000,3.28069,
3610.000,3.28247,
3609.000,3.28491,
3608.000,3.28836,
3607.000,3.29306,
3606.000,3.29809,
3605.000,3.30132,
3604.000,3.30093,
3603.000,3.29672,
3602.000,3.2902,
3601.000,3.28325,
3600.000,3.27674,
3599.000,3.27013,
3598.000,3.26221,
3597.000,3.25222,
3596.000,3.24044,
3595.000,3.22804,
3594.000,3.21631,
3593.000,3.20566,
3592.000,3.19497,
3591.000,3.18182,
3590.000,3.16419,
3589.000,3.14259,
3588.000,3.12061,
3587.000,3.10284,
3586.000,3.09109,
3585.000,3.08276,
3584.000,3.07316,
3583.000,3.05921,
3582.000,3.0408,
3581.000,3.01985,
3580.000,2.99854,
3579.000,2.97801,
3578.000,2.95821,
3577.000,2.93843,
3576.000,2.91802,
3575.000,2.89671,
3574.000,2.87458,
3573.000,2.85177,
3572.000,2.82825,
3571.000,2.80371,
3570.000,2.77767,
3569.000,2.75015,
3568.000,2.72242,
3567.000,2.69688,
3566.000,2.67543,
3565.000,2.6575,
3564.000,2.64038,
3563.000,2.62149,
3562.000,2.60005,
3561.000,2.5768,
3560.000,2.55297,
3559.000,2.52935,
3558.000,2.50601,
3557.000,2.48266,
3556.000,2.45912,
3555.000,2.43561,
3554.000,2.41244,
3553.000,2.38964,
3552.000,2.36688,
3551.000,2.34372,
3550.000,2.31982,
3549.000,2.29512,
3548.000,2.26986,
3547.000,2.24472,
3546.000,2.22062,
3545.000,2.19825,
3544.000,2.17769,
3543.000,2.15833,
3542.000,2.13913,
3541.000,2.11908,
3540.000,2.09785,
3539.000,2.07594,
3538.000,2.05417,
3537.000,2.0329,
3536.000,2.01191,
3535.000,1.9909,
3534.000,1.96987,
3533.000,1.94908,
3532.000,1.92868,
3531.000,1.90861,
3530.000,1.88854,
3529.000,1.86814,
3528.000,1.8474,
3527.000,1.82664,
3526.000,1.80615,
3525.000,1.78588,
3524.000,1.76565,
3523.000,1.74575,
3522.000,1.72686,
3521.000,1.70946,
3520.000,1.69331,
3519.000,1.67761,
3518.000,1.6615,
3517.000,1.64458,
3516.000,1.62704,
3515.000,1.60936,
3514.000,1.59195,
3513.000,1.57492,
3512.000,1.55827,
3511.000,1.54203,
3510.000,1.52611,
3509.000,1.51013,
3508.000,1.49373,
3507.000,1.47701,
3506.000,1.46048,
3505.000,1.44471,
3504.000,1.42987,
3503.000,1.41568,
3502.000,1.40147,
3501.000,1.38655,
3500.000,1.3707,
3499.000,1.35448,
3498.000,1.33877,
3497.000,1.32418,
3496.000,1.31076,
3495.000,1.2981,
3494.000,1.28556,
3493.000,1.27251,
3492.000,1.25872,
3491.000,1.2445,
3490.000,1.23037,
3489.000,1.21652,
3488.000,1.20277,
3487.000,1.18907,
3486.000,1.17577,
3485.000,1.1632,
3484.000,1.15113,
3483.000,1.13901,
3482.000,1.12665,
3481.000,1.11442,
3480.000,1.10273,
3479.000,1.09143,
3478.000,1.08004,
3477.000,1.06837,
3476.000,1.05667,
3475.000,1.04518,
3474.000,1.03377,
3473.000,1.02223,
3472.000,1.01068,
3471.000,0.999453,
3470.000,0.988691,
3469.000,0.978215,
3468.000,0.967853,
3467.000,0.95768,
3466.000,0.947879,
3465.000,0.938489,
3464.000,0.929344,
3463.000,0.920178,
3462.000,0.910746,
3461.000,0.900923,
3460.000,0.89073,
3459.000,0.880258,
3458.000,0.869651,
3457.000,0.859203,
3456.000,0.849355,
3455.000,0.840341,
3454.000,0.831885,
3453.000,0.823406,
3452.000,0.814588,
3451.000,0.805596,
3450.000,0.796705,
3449.000,0.787906,
3448.000,0.779002,
3447.000,0.769984,
3446.000,0.761162,
3445.000,0.752878,
3444.000,0.745117,
3443.000,0.737383,
3442.000,0.729025,
3441.000,0.71976,
3440.000,0.709894,
3439.000,0.700047,
3438.000,0.690764,
3437.000,0.682383,
3436.000,0.67502,
3435.000,0.668398,
3434.000,0.661781,
3433.000,0.654392,
3432.000,0.645947,
3431.000,0.636687,
3430.000,0.627015,
3429.000,0.617311,
3428.000,0.608006,
3427.000,0.599407,
3426.000,0.59136,
3425.000,0.583362,
3424.000,0.57515,
3423.000,0.56692,
3422.000,0.558874,
3421.000,0.550822,
3420.000,0.542458,
3419.000,0.533862,
3418.000,0.525558,
3417.000,0.518109,
3416.000,0.511754,
3415.000,0.506266,
3414.000,0.501066,
3413.000,0.495563,
3412.000,0.489517,
3411.000,0.483084,
3410.000,0.476603,
3409.000,0.470472,
3408.000,0.465108,
3407.000,0.460689,
3406.000,0.456881,
3405.000,0.45308,
3404.000,0.449071,
3403.000,0.445247,
3402.000,0.442053,
3401.000,0.439475,
3400.000,0.437164,
3399.000,0.434785,
3398.000,0.432058,
3397.000,0.428696,
3396.000,0.424609,
3395.000,0.420132,
3394.000,0.415849,
3393.000,0.412143,
3392.000,0.408898,
3391.000,0.405565,
3390.000,0.401618,
3389.000,0.397237,
3388.000,0.393499,
3387.000,0.391459,
3386.000,0.39074,
3385.000,0.389432,
3384.000,0.385814,
3383.000,0.380026,
3382.000,0.373716,
3381.000,0.368204,
3380.000,0.363506,
3379.000,0.359089,
3378.000,0.354911,
3377.000,0.35132,
3376.000,0.348278,
3375.000,0.345236,
3374.000,0.341825,
3373.000,0.338333,
3372.000,0.335284,
3371.000,0.332718,
3370.000,0.330111,
3369.000,0.326995,
3368.000,0.323475,
3367.000,0.320067,
3366.000,0.317167,
3365.000,0.314787,
3364.000,0.31268,
3363.000,0.310556,
3362.000,0.30822,
3361.000,0.305691,
3360.000,0.303216,
3359.000,0.301041,
3358.000,0.299146,
3357.000,0.29731,
3356.000,0.295381,
3355.000,0.293308,
3354.000,0.290903,
3353.000,0.287884,
3352.000,0.284354,
3351.000,0.281083,
3350.000,0.278995,
3349.000,0.278294,
3348.000,0.278169,
3347.000,0.277399,
3346.000,0.275307,
3345.000,0.272242,
3344.000,0.269258,
3343.000,0.267255,
3342.000,0.266298,
3341.000,0.265698,
3340.000,0.264743,
3339.000,0.263334,
3338.000,0.261911,
3337.000,0.260837,
3336.000,0.259936,
3335.000,0.258708,
3334.000,0.256962,
3333.000,0.255148,
3332.000,0.25393,
3331.000,0.253456,
3330.000,0.253167,
3329.000,0.252414,
3328.000,0.251133,
3327.000,0.249768,
3326.000,0.248641,
3325.000,0.247597,
3324.000,0.246275,
3323.000,0.24455,
3322.000,0.242623,
3321.000,0.24081,
3320.000,0.239313,
3319.000,0.238097,
3318.000,0.236946,
3317.000,0.235733,
3316.000,0.234655,
3315.000,0.234088,
3314.000,0.234137,
3313.000,0.234385,
3312.000,0.234161,
3311.000,0.233095,
3310.000,0.231383,
3309.000,0.229613,
3308.000,0.228341,
3307.000,0.227709,
3306.000,0.227397,
3305.000,0.226931,
3304.000,0.22609,
3303.000,0.225052,
3302.000,0.224185,
3301.000,0.223724,
3300.000,0.223633,
3299.000,0.223708,
3298.000,0.223735,
3297.000,0.223569,
3296.000,0.223133,
3295.000,0.222447,
3294.000,0.221714,
3293.000,0.221279,
3292.000,0.221317,
3291.000,0.221532,
3290.000,0.221332,
3289.000,0.220441,
3288.000,0.219253,
3287.000,0.218512,
3286.000,0.218625,
3285.000,0.219373,
3284.000,0.220222,
3283.000,0.220791,
3282.000,0.221064,
3281.000,0.221224,
3280.000,0.221338,
3279.000,0.221204,
3278.000,0.220577,
3277.000,0.219544,
3276.000,0.218554,
3275.000,0.217991,
3274.000,0.21787,
3273.000,0.218008,
3272.000,0.218324,
3271.000,0.218787,
3270.000,0.219248,
3269.000,0.219575,
3268.000,0.219931,
3267.000,0.220648,
3266.000,0.221765,
3265.000,0.222825,
3264.000,0.223202,
3263.000,0.222587,
3262.000,0.221207,
3261.000,0.219689,
3260.000,0.218698,
3259.000,0.218576,
3258.000,0.21921,
3257.000,0.220222,
3256.000,0.221189,
3255.000,0.221723,
3254.000,0.22161,
3253.000,0.221092,
3252.000,0.220838,
3251.000,0.22133,
3250.000,0.222311,
3249.000,0.223071,
3248.000,0.22326,
3247.000,0.22321,
3246.000,0.223419,
3245.000,0.22402,
3244.000,0.224815,
3243.000,0.225609,
3242.000,0.226369,
3241.000,0.22718,
3240.000,0.228147,
3239.000,0.229269,
3238.000,0.230365,
3237.000,0.231265,
3236.000,0.232071,
3235.000,0.233073,
3234.000,0.234346,
3233.000,0.235586,
3232.000,0.236448,
3231.000,0.236889,
3230.000,0.237093,
3229.000,0.237216,
3228.000,0.237367,
3227.000,0.237758,
3226.000,0.238693,
3225.000,0.240347,
3224.000,0.242589,
3223.000,0.244982,
3222.000,0.246964,
3221.000,0.248171,
3220.000,0.248716,
3219.000,0.249126,
3218.000,0.249878,
3217.000,0.250965,
3216.000,0.251979,
3215.000,0.252609,
3214.000,0.252997,
3213.000,0.253575,
3212.000,0.254627,
3211.000,0.256084,
3210.000,0.257703,
3209.000,0.259298,
3208.000,0.260744,
3207.000,0.261886,
3206.000,0.26265,
3205.000,0.263277,
3204.000,0.264261,
3203.000,0.265974,
3202.000,0.268405,
3201.000,0.2713,
3200.000,0.274454,
3199.000,0.277761,
3198.000,0.2811,
3197.000,0.284247,
3196.000,0.2869,
3195.000,0.288827,
3194.000,0.290165,
3193.000,0.291572,
3192.000,0.293779,
3191.000,0.296806,
3190.000,0.29987,
3189.000,0.302298,
3188.000,0.304297,
3187.000,0.30651,
3186.000,0.309034,
3185.000,0.311402,
3184.000,0.313443,
3183.000,0.315608,
3182.000,0.318277,
3181.000,0.321209,
3180.000,0.324016,
3179.000,0.326871,
3178.000,0.33035,
3177.000,0.334653,
3176.000,0.339269,
3175.000,0.343486,
3174.000,0.347086,
3173.000,0.350513,
3172.000,0.354395,
3171.000,0.358883,
3170.000,0.363459,
3169.000,0.367461,
3168.000,0.370805,
3167.000,0.374033,
3166.000,0.377662,
3165.000,0.381721,
3164.000,0.386039,
3163.000,0.390696,
3162.000,0.395889,
3161.000,0.401461,
3160.000,0.40693,
3159.000,0.412081,
3158.000,0.417316,
3157.000,0.423261,
3156.000,0.43006,
3155.000,0.43719,
3154.000,0.443956,
3153.000,0.450118,
3152.000,0.455993,
3151.000,0.462006,
3150.000,0.468236,
3149.000,0.474488,
3148.000,0.480757,
3147.000,0.487447,
3146.000,0.494991,
3145.000,0.503305,
3144.000,0.511723,
3143.000,0.519576,
3142.000,0.526894,
3141.000,0.534467,
3140.000,0.543116,
3139.000,0.552802,
3138.000,0.562554,
3137.000,0.571444,
3136.000,0.579585,
3135.000,0.587993,
3134.000,0.597418,
3133.000,0.607499,
3132.000,0.617266,
3131.000,0.626337,
3130.000,0.63541,
3129.000,0.645552,
3128.000,0.657115,
3127.000,0.669471,
3126.000,0.681715,
3125.000,0.69352,
3124.000,0.705241,
3123.000,0.717281,
3122.000,0.729546,
3121.000,0.741637,
3120.000,0.753449,
3119.000,0.765382,
3118.000,0.777922,
3117.000,0.79122,
3116.000,0.805121,
3115.000,0.819409,
3114.000,0.833902,
3113.000,0.84842,
3112.000,0.862877,
3111.000,0.877369,
3110.000,0.892063,
3109.000,0.907007,
3108.000,0.92215,
3107.000,0.937542,
3106.000,0.953381,
3105.000,0.96984,
3104.000,0.986919,
3103.000,1.00444,
3102.000,1.0221,
3101.000,1.03957,
3100.000,1.05677,
3099.000,1.07402,
3098.000,1.0919,
3097.000,1.11071,
3096.000,1.13015,
3095.000,1.14966,
3094.000,1.16906,
3093.000,1.18865,
3092.000,1.20874,
3091.000,1.22926,
3090.000,1.24995,
3089.000,1.27076,
3088.000,1.2919,
3087.000,1.3135,
3086.000,1.33546,
3085.000,1.35778,
3084.000,1.38066,
3083.000,1.40423,
3082.000,1.42815,
3081.000,1.4519,
3080.000,1.47534,
3079.000,1.49896,
3078.000,1.52334,
3077.000,1.54857,
3076.000,1.57426,
3075.000,1.5999,
3074.000,1.62532,
3073.000,1.65065,
3072.000,1.67617,
3071.000,1.70196,
3070.000,1.7279,
3069.000,1.75382,
3068.000,1.77972,
3067.000,1.80573,
3066.000,1.83189,
3065.000,1.85805,
3064.000,1.88409,
3063.000,1.90992,
3062.000,1.93548,
3061.000,1.96074,
3060.000,1.98584,
3059.000,2.01114,
3058.000,2.03688,
3057.000,2.06293,
3056.000,2.08876,
3055.000,2.11384,
3054.000,2.13805,
3053.000,2.16172,
3052.000,2.18537,
3051.000,2.2093,
3050.000,2.23329,
3049.000,2.2569,
3048.000,2.27994,
3047.000,2.30253,
3046.000,2.32459,
3045.000,2.3455,
3044.000,2.36437,
3043.000,2.38068,
3042.000,2.3945,
3041.000,2.40598,
3040.000,2.41494,
3039.000,2.42098,
3038.000,2.42393,
3037.000,2.42403,
3036.000,2.42156,
3035.000,2.41642,
3034.000,2.40838,
3033.000,2.39757,
3032.000,2.38469,
3031.000,2.37034,
3030.000,2.35455,
3029.000,2.33708,
3028.000,2.31805,
3027.000,2.29791,
3026.000,2.27688,
3025.000,2.25472,
3024.000,2.23115,
3023.000,2.20619,
3022.000,2.17999,
3021.000,2.15273,
3020.000,2.12458,
3019.000,2.09581,
3018.000,2.06647,
3017.000,2.03637,
3016.000,2.00523,
3015.000,1.97293,
3014.000,1.93955,
3013.000,1.90531,
3012.000,1.87046,
3011.000,1.83508,
3010.000,1.79886,
3009.000,1.76157,
3008.000,1.72339,
3007.000,1.68481,
3006.000,1.64601,
3005.000,1.60665,
3004.000,1.56636,
3003.000,1.52515,
3002.000,1.48322,
3001.000,1.44069,
3000.000,1.39773,
2999.000,1.35463,
2998.000,1.31157,
2997.000,1.26855,
2996.000,1.22558,
2995.000,1.1828,
2994.000,1.14021,
2993.000,1.0976,
2992.000,1.05492,
2991.000,1.01253,
2990.000,0.970752,
2989.000,0.929317,
2988.000,0.887505,
2987.000,0.845057,
2986.000,0.802634,
2985.000,0.76127,
2984.000,0.721458,
2983.000,0.682938,
2982.000,0.645279,
2981.000,0.608442,
2980.000,0.57274,
2979.000,0.538374,
2978.000,0.505229,
2977.000,0.473105,
2976.000,0.441981,
2975.000,0.412062,
2974.000,0.383635,
2973.000,0.356986,
2972.000,0.332359,
2971.000,0.309776,
2970.000,0.288918,
2969.000,0.269208,
2968.000,0.25018,
2967.000,0.231883,
2966.000,0.214889,
2965.000,0.199869,
2964.000,0.187012,
2963.000,0.175928,
2962.000,0.166156,
2961.000,0.157603,
2960.000,0.150392,
2959.000,0.144388,
2958.000,0.139139,
2957.000,0.134303,
2956.000,0.129848,
2955.000,0.125814,
2954.000,0.122052,
2953.000,0.118267,
2952.000,0.114191,
2951.000,0.109729,
2950.000,0.105136,
2949.000,0.100966,
2948.000,0.0975338,
2947.000,0.0944472,
2946.000,0.091029,
2945.000,0.0872573,
2944.000,0.0838772,
2943.000,0.081433,
2942.000,0.0796017,
2941.000,0.0777413,
2940.000,0.0756963,
2939.000,0.0737389,
2938.000,0.0721406,
2937.000,0.0713061,
2936.000,0.0719709,
2935.000,0.0746192,
2934.000,0.0788198,
2933.000,0.0836824,
2932.000,0.0888985,
2931.000,0.0948074,
2930.000,0.101561,
2929.000,0.108905,
2928.000,0.116866,
2927.000,0.126071,
2926.000,0.137093,
2925.000,0.149874,
2924.000,0.164025,
2923.000,0.179269,
2922.000,0.195394,
2921.000,0.212098,
2920.000,0.229277,
2919.000,0.247277,
2918.000,0.266534,
2917.000,0.287002,
2916.000,0.308039,
2915.000,0.32878,
2914.000,0.348541,
2913.000,0.366999,
2912.000,0.384049,
2911.000,0.399399,
2910.000,0.412393,
2909.000,0.422517,
2908.000,0.430121,
2907.000,0.436344,
2906.000,0.442211,
2905.000,0.448088,
2904.000,0.454023,
2903.000,0.460157,
2902.000,0.466497,
2901.000,0.472622,
2900.000,0.478024,
2899.000,0.4826,
2898.000,0.486544,
2897.000,0.489825,
2896.000,0.492038,
2895.000,0.492704,
2894.000,0.491561,
2893.000,0.488697,
2892.000,0.48462,
2891.000,0.480052,
2890.000,0.475359,
2889.000,0.470178,
2888.000,0.463739,
2887.000,0.455542,
2886.000,0.445591,
2885.000,0.434164,
2884.000,0.421621,
2883.000,0.408413,
2882.000,0.394976,
2881.000,0.38145,
2880.000,0.367622,
2879.000,0.353241,
2878.000,0.338396,
2877.000,0.323481,
2876.000,0.308789,
2875.000,0.294192,
2874.000,0.279337,
2873.000,0.264235,
2872.000,0.249506,
2871.000,0.235866,
2870.000,0.223431,
2869.000,0.211793,
2868.000,0.200868,
2867.000,0.191423,
2866.000,0.184611,
2865.000,0.181084,
2864.000,0.180658,
2863.000,0.182753,
2862.000,0.187019,
2861.000,0.193698,
2860.000,0.203539,
2859.000,0.217303,
2858.000,0.235229,
2857.000,0.256959,
2856.000,0.281967,
2855.000,0.309933,
2854.000,0.34061,
2853.000,0.373436,
2852.000,0.407428,
2851.000,0.441341,
2850.000,0.473849,
2849.000,0.503841,
2848.000,0.530721,
2847.000,0.554336,
2846.000,0.574482,
2845.000,0.590555,
2844.000,0.602007,
2843.000,0.608992,
2842.000,0.612336,
2841.000,0.612952,
2840.000,0.611389,
2839.000,0.607793,
2838.000,0.60202,
2837.000,0.59385,
2836.000,0.583483,
2835.000,0.57192,
2834.000,0.560539,
2833.000,0.550207,
2832.000,0.540901,
2831.000,0.532175,
2830.000,0.523824,
2829.000,0.515994,
2828.000,0.508934,
2827.000,0.502796,
2826.000,0.497511,
2825.000,0.492721,
2824.000,0.487919,
2823.000,0.482842,
2822.000,0.47772,
2821.000,0.473026,
2820.000,0.468992,
2819.000,0.465377,
2818.000,0.461668,
2817.000,0.457424,
2816.000,0.452466,
2815.000,0.446893,
2814.000,0.44097,
2813.000,0.434984,
2812.000,0.429096,
2811.000,0.423247,
2810.000,0.417186,
2809.000,0.410643,
2808.000,0.403579,
2807.000,0.396298,
2806.000,0.389225,
2805.000,0.38255,
2804.000,0.376074,
2803.000,0.369435,
2802.000,0.362478,
2801.000,0.355381,
2800.000,0.348456,
2799.000,0.341854,
2798.000,0.33548,
2797.000,0.329178,
2796.000,0.322953,
2795.000,0.316961,
2794.000,0.311274,
2793.000,0.305751,
2792.000,0.30023,
2791.000,0.294832,
2790.000,0.289905,
2789.000,0.285589,
2788.000,0.281532,
2787.000,0.277164,
2786.000,0.272274,
2785.000,0.26723,
2784.000,0.262567,
2783.000,0.258425,
2782.000,0.254453,
2781.000,0.250239,
2780.000,0.245713,
2779.000,0.241142,
2778.000,0.236833,
2777.000,0.232936,
2776.000,0.229418,
2775.000,0.22612,
2774.000,0.222846,
2773.000,0.219495,
2772.000,0.216112,
2771.000,0.212788,
2770.000,0.209522,
2769.000,0.206237,
2768.000,0.202928,
2767.000,0.199708,
2766.000,0.196708,
2765.000,0.193965,
2764.000,0.191423,
2763.000,0.18896,
2762.000,0.186433,
2761.000,0.183803,
2760.000,0.181305,
2759.000,0.17937,
2758.000,0.178241,
2757.000,0.177608,
2756.000,0.176727,
2755.000,0.174967,
2754.000,0.172274,
2753.000,0.169166,
2752.000,0.166352,
2751.000,0.164273,
2750.000,0.162859,
2749.000,0.161629,
2748.000,0.160093,
2747.000,0.158151,
2746.000,0.156126,
2745.000,0.154393,
2744.000,0.153032,
2743.000,0.151891,
2742.000,0.150835,
2741.000,0.149811,
2740.000,0.148697,
2739.000,0.14731,
2738.000,0.145632,
2737.000,0.143892,
2736.000,0.142353,
2735.000,0.141123,
2734.000,0.140239,
2733.000,0.139779,
2732.000,0.13969,
2731.000,0.13964,
2730.000,0.139251,
2729.000,0.138466,
2728.000,0.137505,
2727.000,0.136491,
2726.000,0.13535,
2725.000,0.134113,
2724.000,0.133078,
2723.000,0.132479,
2722.000,0.132175,
2721.000,0.131813,
2720.000,0.131217,
2719.000,0.130463,
2718.000,0.129626,
2717.000,0.128636,
2716.000,0.127418,
2715.000,0.126096,
2714.000,0.12498,
2713.000,0.124344,
2712.000,0.124102,
2711.000,0.123724,
2710.000,0.122647,
2709.000,0.12093,
2708.000,0.119377,
2707.000,0.118815,
2706.000,0.119302,
2705.000,0.120185,
2704.000,0.12077,
2703.000,0.120683,
2702.000,0.119713,
2701.000,0.117815,
2700.000,0.115486,
2699.000,0.113784,
2698.000,0.113517,
2697.000,0.114419,
2696.000,0.115377,
2695.000,0.115505,
2694.000,0.114866,
2693.000,0.114136,
2692.000,0.113813,
2691.000,0.113844,
2690.000,0.113875,
2689.000,0.113658,
2688.000,0.113241,
2687.000,0.112853,
2686.000,0.112603,
2685.000,0.112294,
2684.000,0.111592,
2683.000,0.110423,
2682.000,0.10914,
2681.000,0.108204,
2680.000,0.107787,
2679.000,0.107775,
2678.000,0.108075,
2677.000,0.108701,
2676.000,0.109515,
2675.000,0.11013,
2674.000,0.110245,
2673.000,0.109969,
2672.000,0.109631,
2671.000,0.109344,
2670.000,0.108957,
2669.000,0.108414,
2668.000,0.107931,
2667.000,0.107742,
2666.000,0.107831,
2665.000,0.10803,
2664.000,0.10824,
2663.000,0.108433,
2662.000,0.108519,
2661.000,0.108386,
2660.000,0.108059,
2659.000,0.107721,
2658.000,0.107556,
2657.000,0.107594,
2656.000,0.107722,
2655.000,0.107765,
2654.000,0.10761,
2653.000,0.107321,
2652.000,0.107142,
2651.000,0.107262,
2650.000,0.107524,
2649.000,0.107474,
2648.000,0.106844,
2647.000,0.105983,
2646.000,0.105649,
2645.000,0.10625,
2644.000,0.107361,
2643.000,0.108118,
2642.000,0.108115,
2641.000,0.107765,
2640.000,0.107748,
2639.000,0.108236,
2638.000,0.108857,
2637.000,0.109332,
2636.000,0.109845,
2635.000,0.110659,
2634.000,0.111596,
2633.000,0.112119,
2632.000,0.111857,
2631.000,0.11092,
2630.000,0.109751,
2629.000,0.10884,
2628.000,0.10851,
2627.000,0.108748,
2626.000,0.109185,
2625.000,0.109393,
2624.000,0.109298,
2623.000,0.109251,
2622.000,0.109575,
2621.000,0.110157,
2620.000,0.110588,
2619.000,0.110692,
2618.000,0.110732,
2617.000,0.111028,
2616.000,0.11156,
2615.000,0.112032,
2614.000,0.112262,
2613.000,0.112347,
2612.000,0.112487,
2611.000,0.112784,
2610.000,0.113242,
2609.000,0.113847,
2608.000,0.114537,
2607.000,0.11515,
2606.000,0.115526,
2605.000,0.115643,
2604.000,0.115619,
2603.000,0.1156,
2602.000,0.115711,
2601.000,0.11605,
2600.000,0.116637,
2599.000,0.117377,
2598.000,0.118162,
2597.000,0.118985,
2596.000,0.119847,
2595.000,0.120628,
2594.000,0.121188,
2593.000,0.12158,
2592.000,0.122012,
2591.000,0.12257,
2590.000,0.123171,
2589.000,0.123805,
2588.000,0.124589,
2587.000,0.125481,
2586.000,0.126209,
2585.000,0.126672,
2584.000,0.127211,
2583.000,0.128169,
2582.000,0.129349,
2581.000,0.13023,
2580.000,0.130706,
2579.000,0.131243,
2578.000,0.132232,
2577.000,0.133491,
2576.000,0.134628,
2575.000,0.135613,
2574.000,0.136713,
2573.000,0.137953,
2572.000,0.138996,
2571.000,0.139632,
2570.000,0.140161,
2569.000,0.1411,
2568.000,0.142564,
2567.000,0.144112,
2566.000,0.145216,
2565.000,0.14577,
2564.000,0.146048,
2563.000,0.146328,
2562.000,0.146776,
2561.000,0.147636,
2560.000,0.14921,
2559.000,0.151471,
2558.000,0.153843,
2557.000,0.155647,
2556.000,0.156787,
2555.000,0.157808,
2554.000,0.159243,
2553.000,0.161082,
2552.000,0.162921,
2551.000,0.16447,
2550.000,0.165794,
2549.000,0.167139,
2548.000,0.168641,
2547.000,0.170225,
2546.000,0.171784,
2545.000,0.173398,
2544.000,0.175329,
2543.000,0.177711,
2542.000,0.180276,
2541.000,0.182525,
2540.000,0.184213,
2539.000,0.185547,
2538.000,0.186872,
2537.000,0.188314,
2536.000,0.189835,
2535.000,0.19153,
2534.000,0.193666,
2533.000,0.196395,
2532.000,0.199522,
2531.000,0.202677,
2530.000,0.205682,
2529.000,0.208658,
2528.000,0.211759,
2527.000,0.214853,
2526.000,0.217594,
2525.000,0.219881,
2524.000,0.222131,
2523.000,0.224987,
2522.000,0.228707,
2521.000,0.23292,
2520.000,0.236962,
2519.000,0.240391,
2518.000,0.243257,
2517.000,0.246024,
2516.000,0.249285,
2515.000,0.25337,
2514.000,0.258116,
2513.000,0.263048,
2512.000,0.267821,
2511.000,0.272432,
2510.000,0.277042,
2509.000,0.281755,
2508.000,0.286699,
2507.000,0.292132,
2506.000,0.298205,
2505.000,0.304666,
2504.000,0.310935,
2503.000,0.316563,
2502.000,0.321571,
2501.000,0.326432,
2500.000,0.33178,
2499.000,0.338047,
2498.000,0.345186,
2497.000,0.352675,
2496.000,0.359894,
2495.000,0.366626,
2494.000,0.37319,
2493.000,0.380107,
2492.000,0.387662,
2491.000,0.395763,
2490.000,0.404145,
2489.000,0.412618,
2488.000,0.421139,
2487.000,0.429729,
2486.000,0.438369,
2485.000,0.447016,
2484.000,0.455625,
2483.000,0.464149,
2482.000,0.472574,
2481.000,0.481056,
2480.000,0.489953,
2479.000,0.499531,
2478.000,0.50963,
2477.000,0.51977,
2476.000,0.529686,
2475.000,0.539603,
2474.000,0.549887,
2473.000,0.560599,
2472.000,0.571564,
2471.000,0.582715,
2470.000,0.594126,
2469.000,0.605767,
2468.000,0.617461,
2467.000,0.629158,
2466.000,0.641045,
2465.000,0.653295,
2464.000,0.665834,
2463.000,0.678438,
2462.000,0.691,
2461.000,0.70362,
2460.000,0.716494,
2459.000,0.729785,
2458.000,0.743556,
2457.000,0.757817,
2456.000,0.772539,
2455.000,0.78762,
2454.000,0.802849,
2453.000,0.817997,
2452.000,0.833067,
2451.000,0.84835,
2450.000,0.864151,
2449.000,0.880467,
2448.000,0.897033,
2447.000,0.913707,
2446.000,0.930628,
2445.000,0.947966,
2444.000,0.965605,
2443.000,0.983205,
2442.000,1.00062,
2441.000,1.01815,
2440.000,1.03635,
2439.000,1.05552,
2438.000,1.07545,
2437.000,1.09568,
2436.000,1.11586,
2435.000,1.13585,
2434.000,1.15559,
2433.000,1.17505,
2432.000,1.19438,
2431.000,1.21369,
2430.000,1.23288,
2429.000,1.25166,
2428.000,1.26991,
2427.000,1.28793,
2426.000,1.30612,
2425.000,1.32473,
2424.000,1.34388,
2423.000,1.36354,
2422.000,1.38344,
2421.000,1.40324,
2420.000,1.42291,
2419.000,1.44278,
2418.000,1.46301,
2417.000,1.4833,
2416.000,1.50324,
2415.000,1.5228,
2414.000,1.54212,
2413.000,1.56097,
2412.000,1.57889,
2411.000,1.5957,
2410.000,1.61169,
2409.000,1.62721,
2408.000,1.6422,
2407.000,1.6563,
2406.000,1.6692,
2405.000,1.68081,
2404.000,1.69121,
2403.000,1.70029,
2402.000,1.70771,
2401.000,1.71317,
2400.000,1.71682,
2399.000,1.71911,
2398.000,1.72025,
2397.000,1.72005,
2396.000,1.71825,
2395.000,1.71491,
2394.000,1.71026,
2393.000,1.70428,
2392.000,1.69688,
2391.000,1.68805,
2390.000,1.67794,
2389.000,1.66667,
2388.000,1.65432,
2387.000,1.64092,
2386.000,1.6263,
2385.000,1.61014,
2384.000,1.59231,
2383.000,1.57307,
2382.000,1.55297,
2381.000,1.53247,
2380.000,1.51187,
2379.000,1.49132,
2378.000,1.47102,
2377.000,1.45127,
2376.000,1.4324,
2375.000,1.41451,
2374.000,1.3973,
2373.000,1.38033,
2372.000,1.36344,
2371.000,1.34674,
2370.000,1.33025,
2369.000,1.31372,
2368.000,1.29699,
2367.000,1.28009,
2366.000,1.26306,
2365.000,1.24576,
2364.000,1.22832,
2363.000,1.21121,
2362.000,1.19454,
2361.000,1.17823,
2360.000,1.16217,
2359.000,1.1462,
2358.000,1.1303,
2357.000,1.1143,
2356.000,1.09842,
2355.000,1.08284,
2354.000,1.06719,
2353.000,1.05114,
2352.000,1.03493,
2351.000,1.01954,
2350.000,1.00509,
2349.000,0.990678,
2348.000,0.975547,
2347.000,0.959493,
2346.000,0.943443,
2345.000,0.928418,
2344.000,0.915052,
2343.000,0.902708,
2342.000,0.889797,
2341.000,0.875615,
2340.000,0.860694,
2339.000,0.846555,
2338.000,0.833889,
2337.000,0.82209,
2336.000,0.810056,
2335.000,0.797408,
2334.000,0.784144,
2333.000,0.770284,
2332.000,0.755739,
2331.000,0.741106,
2330.000,0.727176,
2329.000,0.714371,
2328.000,0.702743,
2327.000,0.691783,
2326.000,0.681002,
2325.000,0.669628,
2324.000,0.65755,
2323.000,0.645431,
2322.000,0.634156,
2321.000,0.624089,
2320.000,0.61464,
2319.000,0.605181,
2318.000,0.59533,
2317.000,0.585217,
2316.000,0.575047,
2315.000,0.56502,
2314.000,0.55517,
2313.000,0.545484,
2312.000,0.536132,
2311.000,0.527453,
2310.000,0.519595,
2309.000,0.512141,
2308.000,0.504505,
2307.000,0.496524,
2306.000,0.488651,
2305.000,0.481328,
2304.000,0.4745,
2303.000,0.467725,
2302.000,0.460655,
2301.000,0.453267,
2300.000,0.445779,
2299.000,0.438488,
2298.000,0.431613,
2297.000,0.425062,
2296.000,0.418446,
2295.000,0.411417,
2294.000,0.404131,
2293.000,0.397175,
2292.000,0.391085,
2291.000,0.385825,
2290.000,0.380837,
2289.000,0.375447,
2288.000,0.369291,
2287.000,0.36244,
2286.000,0.355293,
2285.000,0.348335,
2284.000,0.341875,
2283.000,0.335886,
2282.000,0.330078,
2281.000,0.324159,
2280.000,0.318027,
2279.000,0.31177,
2278.000,0.305555,
2277.000,0.299574,
2276.000,0.293945,
2275.000,0.288562,
2274.000,0.283109,
2273.000,0.277403,
2272.000,0.271677,
2271.000,0.266303,
2270.000,0.261266,
2269.000,0.256122,
2268.000,0.250562,
2267.000,0.24482,
2266.000,0.239343,
2265.000,0.234228,
2264.000,0.229285,
2263.000,0.22455,
2262.000,0.220383,
2261.000,0.21692,
2260.000,0.2137,
2259.000,0.210035,
2258.000,0.205611,
2257.000,0.200645,
2256.000,0.195587,
2255.000,0.190845,
2254.000,0.186671,
2253.000,0.183096,
2252.000,0.179932,
2251.000,0.176931,
2250.000,0.174011,
2249.000,0.171299,
2248.000,0.168934,
2247.000,0.166861,
2246.000,0.164768,
2245.000,0.162264,
2244.000,0.159207,
2243.000,0.155888,
2242.000,0.152822,
2241.000,0.150278,
2240.000,0.148112,
2239.000,0.146051,
2238.000,0.143969,
2237.000,0.141796,
2236.000,0.139382,
2235.000,0.136665,
2234.000,0.133894,
2233.000,0.131409,
2232.000,0.129243,
2231.000,0.127152,
2230.000,0.125035,
2229.000,0.123057,
2228.000,0.121336,
2227.000,0.119742,
2226.000,0.118112,
2225.000,0.116485,
2224.000,0.114958,
2223.000,0.113485,
2222.000,0.111938,
2221.000,0.110297,
2220.000,0.108632,
2219.000,0.106991,
2218.000,0.105451,
2217.000,0.104226,
2216.000,0.103519,
2215.000,0.103244,
2214.000,0.103036,
2213.000,0.102572,
2212.000,0.10179,
2211.000,0.10077,
2210.000,0.0995404,
2209.000,0.0981146,
2208.000,0.0966688,
2207.000,0.0954828,
2206.000,0.0946092,
2205.000,0.0937328,
2204.000,0.0924886,
2203.000,0.0909098,
2202.000,0.0894444,
2201.000,0.0884697,
2200.000,0.0878806,
2199.000,0.0872733,
2198.000,0.0864196,
2197.000,0.0854159,
2196.000,0.0844746,
2195.000,0.0837344,
2194.000,0.083226,
2193.000,0.0828264,
2192.000,0.0822641,
2191.000,0.0813385,
2190.000,0.0801679,
2189.000,0.0790992,
2188.000,0.0783717,
2187.000,0.0779651,
2186.000,0.077726,
2185.000,0.0774996,
2184.000,0.077162,
2183.000,0.0766769,
2182.000,0.0761156,
2181.000,0.0755069,
2180.000,0.074719,
2179.000,0.0736764,
2178.000,0.0726586,
2177.000,0.0721013,
2176.000,0.0720365,
2175.000,0.0719841,
2174.000,0.0714867,
2173.000,0.0705867,
2172.000,0.0696899,
2171.000,0.0691057,
2170.000,0.0688458,
2169.000,0.0686933,
2168.000,0.0683026,
2167.000,0.0674213,
2166.000,0.0661952,
2165.000,0.0651278,
2164.000,0.0645756,
2163.000,0.0643819,
2162.000,0.0641566,
2161.000,0.0638032,
2160.000,0.0635324,
2159.000,0.0634476,
2158.000,0.0633776,
2157.000,0.0631043,
2156.000,0.0625616,
2155.000,0.0618234,
2154.000,0.0610591,
2153.000,0.060447,
2152.000,0.0599764,
2151.000,0.059418,
2150.000,0.0587018,
2149.000,0.0582398,
2148.000,0.0585835,
2147.000,0.0596878,
2146.000,0.0607876,
2145.000,0.0611453,
2144.000,0.0607596,
2143.000,0.0602366,
2142.000,0.0600832,
2141.000,0.0603109,
2140.000,0.0606029,
2139.000,0.0606473,
2138.000,0.0602758,
2137.000,0.0594709,
2136.000,0.058362,
2135.000,0.0572051,
2134.000,0.0562906,
2133.000,0.0557599,
2132.000,0.0554966,
2131.000,0.0552948,
2130.000,0.0551157,
2129.000,0.0550739,
2128.000,0.0551682,
2127.000,0.055173,
2126.000,0.0548965,
2125.000,0.0544479,
2124.000,0.0540631,
2123.000,0.0537102,
2122.000,0.0531452,
2121.000,0.0523544,
2120.000,0.0517172,
2119.000,0.0516555,
2118.000,0.0521891,
2117.000,0.0528922,
2116.000,0.0532798,
2115.000,0.0532049,
2114.000,0.0529319,
2113.000,0.0528206,
2112.000,0.0529059,
2111.000,0.0528389,
2110.000,0.0523046,
2109.000,0.0514643,
2108.000,0.0508662,
2107.000,0.0509009,
2106.000,0.0514184,
2105.000,0.0519036,
2104.000,0.0519269,
2103.000,0.0513695,
2102.000,0.0503496,
2101.000,0.0491674,
2100.000,0.0483631,
2099.000,0.0485096,
2098.000,0.0496734,
2097.000,0.0511959,
2096.000,0.0521875,
2095.000,0.0522863,
2094.000,0.051882,
2093.000,0.0515657,
2092.000,0.0515213,
2091.000,0.0515529,
2090.000,0.0515403,
2089.000,0.0515728,
2088.000,0.0516625,
2087.000,0.0516512,
2086.000,0.0515381,
2085.000,0.0516474,
2084.000,0.0522151,
2083.000,0.0529566,
2082.000,0.0532693,
2081.000,0.0528628,
2080.000,0.0520288,
2079.000,0.0513076,
2078.000,0.0510296,
2077.000,0.0511216,
2076.000,0.0511988,
2075.000,0.0508588,
2074.000,0.0500645,
2073.000,0.0492895,
2072.000,0.0491304,
2071.000,0.0496778,
2070.000,0.0504036,
2069.000,0.0507453,
2068.000,0.0506885,
2067.000,0.0506759,
2066.000,0.0510341,
2065.000,0.051676,
2064.000,0.052321,
2063.000,0.0527793,
2062.000,0.0529705,
2061.000,0.0528814,
2060.000,0.0526286,
2059.000,0.0524282,
2058.000,0.0524124,
2057.000,0.0525237,
2056.000,0.0526217,
2055.000,0.0526588,
2054.000,0.0526735,
2053.000,0.0526223,
2052.000,0.052367,
2051.000,0.0518929,
2050.000,0.0514207,
2049.000,0.0511982,
2048.000,0.0512435,
2047.000,0.0513861,
2046.000,0.0514804,
2045.000,0.0514894,
2044.000,0.0514494,
2043.000,0.051437,
2042.000,0.0515479,
2041.000,0.0518324,
2040.000,0.0522056,
2039.000,0.0524612,
2038.000,0.0524417,
2037.000,0.0522027,
2036.000,0.0519796,
2035.000,0.0519808,
2034.000,0.052217,
2033.000,0.0525502,
2032.000,0.052919,
2031.000,0.0534652,
2030.000,0.0543287,
2029.000,0.0553251,
2028.000,0.0560215,
2027.000,0.0562357,
2026.000,0.0562456,
2025.000,0.0563355,
2024.000,0.0563733,
2023.000,0.0561299,
2022.000,0.0558266,
2021.000,0.0559766,
2020.000,0.0567183,
2019.000,0.057639,
2018.000,0.0582585,
2017.000,0.0584406,
2016.000,0.0583767,
2015.000,0.0583836,
2014.000,0.0587438,
2013.000,0.0595379,
2012.000,0.0605139,
2011.000,0.0612483,
2010.000,0.0615154,
2009.000,0.0613987,
2008.000,0.0610709,
2007.000,0.0606563,
2006.000,0.0603067,
2005.000,0.0601978,
2004.000,0.060374,
2003.000,0.0607323,
2002.000,0.0611721,
2001.000,0.0616393,
2000.000,0.0620641,
1999.000,0.0623581,
1998.000,0.0625387,
1997.000,0.0627717,
1996.000,0.0632021,
1995.000,0.0639094,
1994.000,0.0649821,
1993.000,0.0663055,
1992.000,0.0673335,
1991.000,0.0674653,
1990.000,0.0667807,
1989.000,0.0660767,
1988.000,0.0660041,
1987.000,0.0664604,
1986.000,0.0670127,
1985.000,0.0675831,
1984.000,0.0683523,
1983.000,0.0692403,
1982.000,0.069964,
1981.000,0.0705467,
1980.000,0.0713336,
1979.000,0.0724233,
1978.000,0.0734375,
1977.000,0.0740029,
1976.000,0.0742378,
1975.000,0.0745879,
1974.000,0.0752952,
1973.000,0.0762032,
1972.000,0.0770324,
1971.000,0.0777097,
1970.000,0.0784084,
1969.000,0.0792592,
1968.000,0.0800662,
1967.000,0.0804553,
1966.000,0.0803906,
1965.000,0.0804287,
1964.000,0.0812433,
1963.000,0.0829,
1962.000,0.0847241,
1961.000,0.085908,
1960.000,0.0862194,
1959.000,0.0861347,
1958.000,0.0863591,
1957.000,0.0872668,
1956.000,0.0887368,
1955.000,0.0903408,
1954.000,0.0916755,
1953.000,0.0926162,
1952.000,0.0932706,
1951.000,0.0938731,
1950.000,0.094768,
1949.000,0.0962069,
1948.000,0.0980558,
1947.000,0.0998683,
1946.000,0.101299,
1945.000,0.102319,
1944.000,0.103025,
1943.000,0.1035,
1942.000,0.104009,
1941.000,0.105067,
1940.000,0.106958,
1939.000,0.109286,
1938.000,0.11128,
1937.000,0.112544,
1936.000,0.113432,
1935.000,0.114668,
1934.000,0.116713,
1933.000,0.119443,
1932.000,0.122285,
1931.000,0.124664,
1930.000,0.126471,
1929.000,0.128225,
1928.000,0.130651,
1927.000,0.133987,
1926.000,0.137747,
1925.000,0.141165,
1924.000,0.143889,
1923.000,0.146171,
1922.000,0.148451,
1921.000,0.150905,
1920.000,0.153418,
1919.000,0.155909,
1918.000,0.158549,
1917.000,0.161629,
1916.000,0.165254,
1915.000,0.169189,
1914.000,0.17307,
1913.000,0.176722,
1912.000,0.180242,
1911.000,0.183887,
1910.000,0.187824,
1909.000,0.192029,
1908.000,0.196451,
1907.000,0.201196,
1906.000,0.206437,
1905.000,0.212083,
1904.000,0.21778,
1903.000,0.223261,
1902.000,0.228606,
1901.000,0.234147,
1900.000,0.240122,
1899.000,0.246471,
1898.000,0.252931,
1897.000,0.259261,
1896.000,0.265536,
1895.000,0.272179,
1894.000,0.279603,
1893.000,0.287795,
1892.000,0.2963,
1891.000,0.304609,
1890.000,0.312485,
1889.000,0.320093,
1888.000,0.327976,
1887.000,0.336663,
1886.000,0.346136,
1885.000,0.35582,
1884.000,0.365202,
1883.000,0.374349,
1882.000,0.383634,
1881.000,0.393102,
1880.000,0.402484,
1879.000,0.411799,
1878.000,0.421481,
1877.000,0.431688,
1876.000,0.441952,
1875.000,0.451714,
1874.000,0.460881,
1873.000,0.469828,
1872.000,0.47909,
1871.000,0.489019,
1870.000,0.499513,
1869.000,0.510212,
1868.000,0.521431,
1867.000,0.534376,
1866.000,0.549779,
1865.000,0.566921,
1864.000,0.584436,
1863.000,0.60168,
1862.000,0.618952,
1861.000,0.636609,
1860.000,0.654453,
1859.000,0.67213,
1858.000,0.689677,
1857.000,0.70734,
1856.000,0.725259,
1855.000,0.743488,
1854.000,0.761849,
1853.000,0.779814,
1852.000,0.796992,
1851.000,0.813617,
1850.000,0.830315,
1849.000,0.84692,
1848.000,0.862559,
1847.000,0.877314,
1846.000,0.892401,
1845.000,0.907988,
1844.000,0.922078,
1843.000,0.932948,
1842.000,0.940992,
1841.000,0.947277,
1840.000,0.952659,
1839.000,0.957509,
1838.000,0.961041,
1837.000,0.962294,
1836.000,0.961628,
1835.000,0.960013,
1834.000,0.957627,
1833.000,0.953787,
1832.000,0.947827,
1831.000,0.939437,
1830.000,0.92866,
1829.000,0.91645,
1828.000,0.904588,
1827.000,0.893773,
1826.000,0.882793,
1825.000,0.869984,
1824.000,0.855285,
1823.000,0.840406,
1822.000,0.826238,
1821.000,0.811641,
1820.000,0.795058,
1819.000,0.77611,
1818.000,0.755396,
1817.000,0.73352,
1816.000,0.711012,
1815.000,0.688287,
1814.000,0.665379,
1813.000,0.64224,
1812.000,0.619372,
1811.000,0.597822,
1810.000,0.578387,
1809.000,0.561443,
1808.000,0.547431,
1807.000,0.536676,
1806.000,0.528569,
1805.000,0.521797,
1804.000,0.515553,
1803.000,0.510004,
1802.000,0.505343,
1801.000,0.500948,
1800.000,0.495987,
1799.000,0.490469,
1798.000,0.484675,
1797.000,0.478124,
1796.000,0.470064,
1795.000,0.460406,
1794.000,0.449386,
1793.000,0.436694,
1792.000,0.422047,
1791.000,0.406668,
1790.000,0.392304,
1789.000,0.379353,
1788.000,0.367185,
1787.000,0.355105,
1786.000,0.342496,
1785.000,0.329016,
1784.000,0.315059,
1783.000,0.301423,
1782.000,0.288369,
1781.000,0.275475,
1780.000,0.262234,
1779.000,0.248781,
1778.000,0.235551,
1777.000,0.222776,
1776.000,0.210678,
1775.000,0.199542,
1774.000,0.189239,
1773.000,0.178977,
1772.000,0.168306,
1771.000,0.158017,
1770.000,0.149086,
1769.000,0.14168,
1768.000,0.13565,
1767.000,0.130901,
1766.000,0.127148,
1765.000,0.123968,
1764.000,0.121045,
1763.000,0.117941,
1762.000,0.114003,
1761.000,0.109102,
1760.000,0.103996,
1759.000,0.0993245,
1758.000,0.0948163,
1757.000,0.0898437,
1756.000,0.0843914,
1755.000,0.0792076,
1754.000,0.0749996,
1753.000,0.0719518,
1752.000,0.0699147,
1751.000,0.0683674,
1750.000,0.0663649,
1749.000,0.0632257,
1748.000,0.0592813,
1747.000,0.0554791,
1746.000,0.0524012,
1745.000,0.0499247,
1744.000,0.0476793,
1743.000,0.0454092,
1742.000,0.0429392,
1741.000,0.0402415,
1740.000,0.0375474,
1739.000,0.0351908,
1738.000,0.033254,
1737.000,0.0315086,
1736.000,0.0297197,
1735.000,0.0277812,
1734.000,0.0257822,
1733.000,0.0241257,
1732.000,0.023078,
1731.000,0.0224473,
1730.000,0.0219776,
1729.000,0.0214627,
1728.000,0.0205882,
1727.000,0.0190538,
1726.000,0.0168074,
1725.000,0.0140876,
1724.000,0.011246,
1723.000,0.00853249,
1722.000,0.00614007,
1721.000,0.00433435,
1720.000,0.00323328,
1719.000,0.002515,
1718.000,0.00189566,
1717.000,0.00152571,
1716.000,0.00128647,
1715.000,0.00144451,
1714.000,0.00181789,
1713.000,0.00156476,
1712.000,0.00130128,
1711.000,0.00175575,
1710.000,0.00241231,
1709.000,0.00284575,
1708.000,0.00305876,
1707.000,0.00317381,
1706.000,0.00353455,
1705.000,0.00462005,
1704.000,0.00653341,
1703.000,0.00889708,
1702.000,0.0114545,
1701.000,0.014851,
1700.000,0.0200194,
1699.000,0.0264838,
1698.000,0.033237,
1697.000,0.0410363,
1696.000,0.0520946,
1695.000,0.0672117,
1694.000,0.0846611,
1693.000,0.103486,
1692.000,0.125235,
1691.000,0.151887,
1690.000,0.183001,
1689.000,0.215441,
1688.000,0.246185,
1687.000,0.274638,
1686.000,0.301618,
1685.000,0.325543,
1684.000,0.341087,
1683.000,0.345386,
1682.000,0.342032,
1681.000,0.334963,
1680.000,0.325947,
1679.000,0.316124,
1678.000,0.3067,
1677.000,0.2994,
1676.000,0.295108,
1675.000,0.292818,
1674.000,0.290847,
1673.000,0.288458,
1672.000,0.285827,
1671.000,0.283487,
1670.000,0.281179,
1669.000,0.278273,
1668.000,0.275341,
1667.000,0.273222,
1666.000,0.271539,
1665.000,0.2692,
1664.000,0.265184,
1663.000,0.258816,
1662.000,0.250458,
1661.000,0.241394,
1660.000,0.232292,
1659.000,0.223052,
1658.000,0.213571,
1657.000,0.204231,
1656.000,0.196199,
1655.000,0.190426,
1654.000,0.185294,
1653.000,0.177043,
1652.000,0.166431,
1651.000,0.157421,
1650.000,0.149886,
1649.000,0.143287,
1648.000,0.138004,
1647.000,0.133201,
1646.000,0.128235,
1645.000,0.123546,
1644.000,0.119385,
1643.000,0.115348,
1642.000,0.111261,
1641.000,0.10725,
1640.000,0.103498,
1639.000,0.100345,
1638.000,0.097935,
1637.000,0.0957247,
1636.000,0.0929154,
1635.000,0.0897555,
1634.000,0.0874369,
1633.000,0.086147,
1632.000,0.0852098,
1631.000,0.0844177,
1630.000,0.0837383,
1629.000,0.0827518,
1628.000,0.0811021,
1627.000,0.0791157,
1626.000,0.0774459,
1625.000,0.0761933,
1624.000,0.0747788,
1623.000,0.0727316,
1622.000,0.0703255,
1621.000,0.0681663,
1620.000,0.0665133,
1619.000,0.0653275,
1618.000,0.0643533,
1617.000,0.0630314,
1616.000,0.061049,
1615.000,0.0589413,
1614.000,0.057437,
1613.000,0.0565969,
1612.000,0.0559096,
1611.000,0.0548373,
1610.000,0.0534486,
1609.000,0.0524276,
1608.000,0.0522543,
1607.000,0.0526834,
1606.000,0.0530542,
1605.000,0.052967,
1604.000,0.0525909,
1603.000,0.0523128,
1602.000,0.052159,
1601.000,0.0517122,
1600.000,0.0505942,
1599.000,0.0488708,
1598.000,0.0469732,
1597.000,0.0453431,
1596.000,0.0442143,
1595.000,0.0435883,
1594.000,0.043257,
1593.000,0.0428854,
1592.000,0.0422498,
1591.000,0.0414872,
1590.000,0.0409611,
1589.000,0.0408251,
1588.000,0.0408627,
1587.000,0.0406932,
1586.000,0.0400755,
1585.000,0.0391011,
1584.000,0.0380574,
1583.000,0.0371478,
1582.000,0.0363924,
1581.000,0.0356608,
1580.000,0.0348523,
1579.000,0.0340891,
1578.000,0.0336362,
1577.000,0.0335592,
1576.000,0.033555,
1575.000,0.033308,
1574.000,0.0328368,
1573.000,0.0323263,
1572.000,0.0319204,
1571.000,0.0315406,
1570.000,0.0310542,
1569.000,0.0309188,
1568.000,0.0318309,
1567.000,0.0335652,
1566.000,0.0350387,
1565.000,0.0354052,
1564.000,0.0347467,
1563.000,0.0337731,
1562.000,0.0330701,
1561.000,0.032758,
1560.000,0.0326228,
1559.000,0.0323312,
1558.000,0.0317605,
1557.000,0.0309692,
1556.000,0.0299629,
1555.000,0.0288957,
1554.000,0.0279874,
1553.000,0.0272628,
1552.000,0.0267825,
1551.000,0.0266853,
1550.000,0.0268605,
1549.000,0.0269649,
1548.000,0.0269152,
1547.000,0.0269346,
1546.000,0.0270446,
1545.000,0.0269011,
1544.000,0.0262455,
1543.000,0.025251,
1542.000,0.0242198,
1541.000,0.0232522,
1540.000,0.0225724,
1539.000,0.0227248,
1538.000,0.023683,
1537.000,0.0244882,
1536.000,0.0244589,
1535.000,0.023805,
1534.000,0.0230885,
1533.000,0.0227336,
1532.000,0.0228593,
1531.000,0.0233625,
1530.000,0.0238753,
1529.000,0.0238995,
1528.000,0.0233213,
1527.000,0.0224218,
1526.000,0.0214171,
1525.000,0.0205269,
1524.000,0.0202429,
1523.000,0.0209209,
1522.000,0.0222262,
1521.000,0.0231877,
1520.000,0.0230867,
1519.000,0.0221791,
1518.000,0.021151,
1517.000,0.0204296,
1516.000,0.0202577,
1515.000,0.0208352,
1514.000,0.0220062,
1513.000,0.02309,
1512.000,0.0233941,
1511.000,0.022885,
1510.000,0.0221621,
1509.000,0.0217801,
1508.000,0.0216764,
1507.000,0.0212316,
1506.000,0.02023,
1505.000,0.0193664,
1504.000,0.0191792,
1503.000,0.0196049,
1502.000,0.0204362,
1501.000,0.021356,
1500.000,0.0219649,
1499.000,0.0220514,
1498.000,0.0216879,
1497.000,0.0210786,
1496.000,0.020555,
1495.000,0.0205098,
1494.000,0.0209957,
1493.000,0.0217102,
1492.000,0.0224206,
1491.000,0.0230574,
1490.000,0.0234869,
1489.000,0.0234049,
1488.000,0.0226056,
1487.000,0.0214099,
1486.000,0.020526,
1485.000,0.0203627,
1484.000,0.0206859,
1483.000,0.0209937,
1482.000,0.0210031,
1481.000,0.0207065,
1480.000,0.0202333,
1479.000,0.0197935,
1478.000,0.0195932,
1477.000,0.0195021,
1476.000,0.0189966,
1475.000,0.0178617,
1474.000,0.0167251,
1473.000,0.0165555,
1472.000,0.0175,
1471.000,0.0186198,
1470.000,0.0191485,
1469.000,0.0193253,
1468.000,0.0197699,
1467.000,0.0206158,
1466.000,0.0213972,
1465.000,0.0216027,
1464.000,0.021303,
1463.000,0.0210625,
1462.000,0.021233,
1461.000,0.0217229,
1460.000,0.0222763,
1459.000,0.0225722,
1458.000,0.022207,
1457.000,0.0211159,
1456.000,0.0200135,
1455.000,0.0195405,
1454.000,0.0193714,
1453.000,0.0189003,
1452.000,0.0179927,
1451.000,0.0170539,
1450.000,0.0167233,
1449.000,0.0172829,
1448.000,0.0184481,
1447.000,0.0197097,
1446.000,0.020663,
1445.000,0.0210663,
1444.000,0.020893,
1443.000,0.0205017,
1442.000,0.0204835,
1441.000,0.0211311,
1440.000,0.0221286,
1439.000,0.0228747,
1438.000,0.0230081,
1437.000,0.0226392,
1436.000,0.0222068,
1435.000,0.0219434,
1434.000,0.0216272,
1433.000,0.0210104,
1432.000,0.0202064,
1431.000,0.019638,
1430.000,0.0196026,
1429.000,0.019869,
1428.000,0.0199441,
1427.000,0.0196788,
1426.000,0.0193276,
1425.000,0.0191174,
1424.000,0.0189759,
1423.000,0.0186751,
1422.000,0.0182287,
1421.000,0.0177993,
1420.000,0.0175068,
1419.000,0.0177624,
1418.000,0.0187164,
1417.000,0.0197662,
1416.000,0.0203703,
1415.000,0.0204873,
1414.000,0.0204228,
1413.000,0.0205569,
1412.000,0.0210088,
1411.000,0.0215216,
1410.000,0.0216649,
1409.000,0.0211462,
1408.000,0.0200641,
1407.000,0.0189761,
1406.000,0.0185623,
1405.000,0.0190416,
1404.000,0.0199682,
1403.000,0.020757,
1402.000,0.0212186,
1401.000,0.0213633,
1400.000,0.0209716,
1399.000,0.0198188,
1398.000,0.0182988,
1397.000,0.017316,
1396.000,0.0175479,
1395.000,0.0190197,
1394.000,0.021039,
1393.000,0.0226056,
1392.000,0.0231606,
1391.000,0.0228489,
1390.000,0.0221688,
1389.000,0.0215417,
1388.000,0.0212082,
1387.000,0.0214197,
1386.000,0.0223268,
1385.000,0.0235507,
1384.000,0.0243075,
1383.000,0.0241708,
1382.000,0.0235851,
1381.000,0.023363,
1380.000,0.0236819,
1379.000,0.0239804,
1378.000,0.0238884,
1377.000,0.0236922,
1376.000,0.0237137,
1375.000,0.0238714,
1374.000,0.0240757,
1373.000,0.024559,
1372.000,0.0255078,
1371.000,0.0266648,
1370.000,0.0276145,
1369.000,0.028239,
1368.000,0.0286139,
1367.000,0.0287367,
1366.000,0.028688,
1365.000,0.0287574,
1364.000,0.0290548,
1363.000,0.0292511,
1362.000,0.0290887,
1361.000,0.0289082,
1360.000,0.0292114,
1359.000,0.0299274,
1358.000,0.0305789,
1357.000,0.0310459,
1356.000,0.0317326,
1355.000,0.0329086,
1354.000,0.0342926,
1353.000,0.0353905,
1352.000,0.0358401,
1351.000,0.0354658,
1350.000,0.0343291,
1349.000,0.0327331,
1348.000,0.0310616,
1347.000,0.0296281,
1346.000,0.0287163,
1345.000,0.0285669,
1344.000,0.0291093,
1343.000,0.0298308,
1342.000,0.0301028,
1341.000,0.029645,
1340.000,0.0286333,
1339.000,0.0274576,
1338.000,0.0265451,
1337.000,0.0262874,
1336.000,0.0266852,
1335.000,0.027123,
1334.000,0.02701,
1333.000,0.0265579,
1332.000,0.0266215,
1331.000,0.0278112,
1330.000,0.0298931,
1329.000,0.0321278,
1328.000,0.033957,
1327.000,0.0352272,
1326.000,0.0360479,
1325.000,0.0365922,
1324.000,0.036869,
1323.000,0.0368369,
1322.000,0.0368991,
1321.000,0.0376661,
1320.000,0.0390567,
1319.000,0.0401282,
1318.000,0.0399234,
1317.000,0.0383965,
1316.000,0.0361105,
1315.000,0.0331926,
1314.000,0.0294414,
1313.000,0.0253523,
1312.000,0.0220859,
1311.000,0.0202528,
1310.000,0.0194492,
1309.000,0.0191117,
1308.000,0.019267,
1307.000,0.0201527,
1306.000,0.0215548,
1305.000,0.0231134,
1304.000,0.0248968,
1303.000,0.0270237,
1302.000,0.0290564,
1301.000,0.0303911,
1300.000,0.0309968,
1299.000,0.0314385,
1298.000,0.0323212,
1297.000,0.0338753,
1296.000,0.0359504,
1295.000,0.0380242,
1294.000,0.0393572,
1293.000,0.0396856,
1292.000,0.0397501,
1291.000,0.0406875,
1290.000,0.0428115,
1289.000,0.0452765,
1288.000,0.0470491,
1287.000,0.0479839,
1286.000,0.0487712,
1285.000,0.0500864,
1284.000,0.0519598,
1283.000,0.0538044,
1282.000,0.0549377,
1281.000,0.0551527,
1280.000,0.0548976,
1279.000,0.0549554,
1278.000,0.0558868,
1277.000,0.0576374,
1276.000,0.059653,
1275.000,0.0613853,
1274.000,0.0627684,
1273.000,0.0642306,
1272.000,0.0660625,
1271.000,0.0678909,
1270.000,0.0691223,
1269.000,0.0698604,
1268.000,0.0708653,
1267.000,0.0724085,
1266.000,0.0737034,
1265.000,0.0738661,
1264.000,0.0731732,
1263.000,0.0729362,
1262.000,0.0742652,
1261.000,0.0772751,
1260.000,0.0812641,
1259.000,0.0853089,
1258.000,0.0888373,
1257.000,0.0920216,
1256.000,0.0955783,
1255.000,0.0998807,
1254.000,0.104399,
1253.000,0.108403,
1252.000,0.112073,
1251.000,0.116351,
1250.000,0.121688,
1249.000,0.127436,
1248.000,0.132654,
1247.000,0.137109,
1246.000,0.141241,
1245.000,0.145423,
1244.000,0.149508,
1243.000,0.153101,
1242.000,0.156125,
1241.000,0.158934,
1240.000,0.161761,
1239.000,0.164113,
1238.000,0.165008,
1237.000,0.16387,
1236.000,0.160939,
1235.000,0.156833,
1234.000,0.151899,
1233.000,0.146136,
1232.000,0.139464,
1231.000,0.131639,
1230.000,0.122076,
1229.000,0.110143,
1228.000,0.0958456,
1227.000,0.0802055,
1226.000,0.0648848,
1225.000,0.0514397,
1224.000,0.0407858,
1223.000,0.033136,
1222.000,0.0282556,
1221.000,0.0260505,
1220.000,0.0268482,
1219.000,0.0305291,
1218.000,0.0358369,
1217.000,0.0414051,
1216.000,0.0470377,
1215.000,0.0534349,
1214.000,0.0609494,
1213.000,0.0690071,
1212.000,0.0768924,
1211.000,0.0847349,
1210.000,0.0932601,
1209.000,0.102839,
1208.000,0.113194,
1207.000,0.123922,
1206.000,0.134916,
1205.000,0.146089,
1204.000,0.156954,
1203.000,0.166874,
1202.000,0.175831,
1201.000,0.184706,
1200.000,0.194513,
1199.000,0.205434,
1198.000,0.216775,
1197.000,0.227719,
1196.000,0.237807,
1195.000,0.246811,
1194.000,0.254591,
1193.000,0.26121,
1192.000,0.266907,
1191.000,0.271712,
1190.000,0.27545,
1189.000,0.278332,
1188.000,0.281059,
1187.000,0.284,
1186.000,0.286518,
1185.000,0.287634,
1184.000,0.28734,
1183.000,0.28672,
1182.000,0.286728,
1181.000,0.28719,
1180.000,0.287153,
1179.000,0.285916,
1178.000,0.283396,
1177.000,0.279791,
1176.000,0.275347,
1175.000,0.270565,
1174.000,0.266232,
1173.000,0.262774,
1172.000,0.259595,
1171.000,0.255412,
1170.000,0.249445,
1169.000,0.24224,
1168.000,0.235048,
1167.000,0.228499,
1166.000,0.222226,
1165.000,0.215718,
1164.000,0.208988,
1163.000,0.202115,
1162.000,0.194738,
1161.000,0.186721,
1160.000,0.179042,
1159.000,0.173151,
1158.000,0.16927,
1157.000,0.165928,
1156.000,0.161431,
1155.000,0.155417,
1154.000,0.148788,
1153.000,0.142565,
1152.000,0.137113,
1151.000,0.132125,
1150.000,0.126979,
1149.000,0.121277,
1148.000,0.115291,
1147.000,0.109711,
1146.000,0.104813,
1145.000,0.100204,
1144.000,0.0955378,
1143.000,0.0909748,
1142.000,0.0866589,
1141.000,0.0822118,
1140.000,0.0771717,
1139.000,0.0715372,
1138.000,0.0654996,
1137.000,0.0591121,
1136.000,0.0527641,
1135.000,0.0476689,
1134.000,0.0449779,
1133.000,0.044319,
1132.000,0.0439304,
1131.000,0.0423299,
1130.000,0.03941,
1129.000,0.0358705,
1128.000,0.0323327,
1127.000,0.0292819,
1126.000,0.0269766,
1125.000,0.0250404,
1124.000,0.0226347,
1123.000,0.0194166,
1122.000,0.0163037,
1121.000,0.014885,
1120.000,0.0154763,
1119.000,0.0167537,
1118.000,0.018105,
1117.000,0.0207787,
1116.000,0.0259572,
1115.000,0.0326519,
1114.000,0.0387973,
1113.000,0.0436241,
1112.000,0.0477287,
1111.000,0.051663,
1110.000,0.0549241,
1109.000,0.0564062,
1108.000,0.0556748,
1107.000,0.0531014,
1106.000,0.0492235,
1105.000,0.0446792,
1104.000,0.040503,
1103.000,0.037693,
1102.000,0.0362555,
1101.000,0.0351599,
1100.000,0.0334823,
1099.000,0.0314202,
1098.000,0.0297668,
1097.000,0.0287736,
1096.000,0.0281635,
1095.000,0.0277827,
1094.000,0.0276633,
1093.000,0.0277288,
1092.000,0.0273766,
1091.000,0.0256292,
1090.000,0.022371,
1089.000,0.0188698,
1088.000,0.0164051,
1087.000,0.0147797,
1086.000,0.0130532,
1085.000,0.0111832,
1084.000,0.00997106,
1083.000,0.00988253,
1082.000,0.0106251,
1081.000,0.0119584,
1080.000,0.0139901,
1079.000,0.0161264,
1078.000,0.0168467,
1077.000,0.0152602,
1076.000,0.0121311,
1075.000,0.00918406,
1074.000,0.00748456,
1073.000,0.0072807,
1072.000,0.00891577,
1071.000,0.0119713,
1070.000,0.0149171,
1069.000,0.0161177,
1068.000,0.0148113,
1067.000,0.0119129,
1066.000,0.00907844,
1065.000,0.00735993,
1064.000,0.00682787,
1063.000,0.00677279,
1062.000,0.00580545,
1061.000,0.00382729,
1060.000,0.00378453,
1059.000,0.00578756,
1058.000,0.00674532,
1057.000,0.00672313,
1056.000,0.00766501,
1055.000,0.00972589,
1054.000,0.0111742,
1053.000,0.0113135,
1052.000,0.0113691,
1051.000,0.0126607,
1050.000,0.0150067,
1049.000,0.016896,
1048.000,0.0172193,
1047.000,0.016092,
1046.000,0.0142785,
1045.000,0.0124286,
1044.000,0.0108645,
1043.000,0.00983171,
1042.000,0.00981322,
1041.000,0.0103837,
1040.000,0.010208,
1039.000,0.00968054,
1038.000,0.0103595,
1037.000,0.0117428,
1036.000,0.0122876,
1035.000,0.0116535,
1034.000,0.0104506,
1033.000,0.00958168,
1032.000,0.00932268,
1031.000,0.00893712,
1030.000,0.00827215,
1029.000,0.00787471,
1028.000,0.00720015,
1027.000,0.00562664,
1026.000,0.00370289,
1025.000,0.00200092,
1024.000,0.000928921,
1023.000,0.000864593,
1022.000,0.00218091,
1021.000,0.00499538,
1020.000,0.00815164,
1019.000,0.0100612,
1018.000,0.0098808,
1017.000,0.00814159,
1016.000,0.00644279,
1015.000,0.00610011,
1014.000,0.00706209,
1013.000,0.00804265,
1012.000,0.00856012,
1011.000,0.00938135,
1010.000,0.0104179,
1009.000,0.0105851,
1008.000,0.00958974,
1007.000,0.00782579,
1006.000,0.00626106,
1005.000,0.00540829,
1004.000,0.00430551,
1003.000,0.00304194,
1002.000,0.00235931,
1001.000,0.00245698,
1000.000,0.00224839,
999.000,0.00119878,
998.000,0.00147694,
997.000,0.00135306,
996.000,0.000363815,
995.000,0.000950798,
994.000,0.00125813,
993.000,0.00104502,
992.000,0.00129145,
991.000,0.00212327,
990.000,0.00371568,
989.000,0.00534881,
988.000,0.00614868,
987.000,0.00526207,
986.000,0.00339345,
985.000,0.00306651,
984.000,0.00421701,
983.000,0.00470898,
982.000,0.00483724,
981.000,0.00561902,
980.000,0.00660161,
979.000,0.00681356,
978.000,0.00611729,
977.000,0.00518623,
976.000,0.0040153,
975.000,0.00283083,
974.000,0.00127363,
973.000,0.000806254,
972.000,0.0026326,
971.000,0.00353217,
970.000,0.00403204,
969.000,0.00582309,
968.000,0.00721366,
967.000,0.0070189,
966.000,0.00492104,
965.000,0.00226542,
964.000,0.00183945,
963.000,0.00296631,
962.000,0.00232796,
961.000,0.000743834,
960.000,0.00122657,
959.000,0.00303366,
958.000,0.00461991,
957.000,0.00535268,
956.000,0.00472827,
955.000,0.00352592,
954.000,0.00282179,
953.000,0.00383774,
952.000,0.00612428,
951.000,0.00737592,
950.000,0.00691409,
949.000,0.00582955,
948.000,0.00496817,
947.000,0.00440767,
946.000,0.00398781,
945.000,0.00396782,
944.000,0.00452192,
943.000,0.00480886,
942.000,0.00408554,
941.000,0.00267784,
940.000,0.00168641,
939.000,0.0022432,
938.000,0.00398643,
937.000,0.0054331,
936.000,0.00569082,
935.000,0.00545387,
934.000,0.00522472,
933.000,0.00413873,
932.000,0.00249415,
931.000,0.00175678,
930.000,0.002772,
929.000,0.00485441,
928.000,0.00657319,
927.000,0.00660679,
926.000,0.00530104,
925.000,0.00280426,
924.000,0.00120826,
923.000,0.00276821,
922.000,0.00368548,
921.000,0.00265782,
920.000,0.001871,
919.000,0.00222393,
918.000,0.00308656,
917.000,0.0036375,
916.000,0.00396933,
915.000,0.00308687,
914.000,0.00117832,
913.000,0.00153678,
912.000,0.00293948,
911.000,0.00314899,
910.000,0.00203135,
909.000,0.00138783,
908.000,0.00351266,
907.000,0.00494053,
906.000,0.00442473,
905.000,0.00357756,
904.000,0.00363861,
903.000,0.00469047,
902.000,0.004716,
901.000,0.00364227,
900.000,0.00188931,
899.000,0.00117174,
898.000,0.00317475,
897.000,0.004652,
896.000,0.00460994,
895.000,0.00327908,
894.000,0.00169019,
893.000,0.00251337,
892.000,0.0037521,
891.000,0.00394502,
890.000,0.00407047,
889.000,0.00421756,
888.000,0.00413465,
887.000,0.00421524,
886.000,0.00482493,
885.000,0.00495457,
884.000,0.0040487,
883.000,0.00201889,
882.000,0.00133831,
881.000,0.00122018,
880.000,0.000676235,
879.000,0.00360033,
878.000,0.0066227,
877.000,0.0071632,
876.000,0.00546919,
875.000,0.00459128,
874.000,0.00445117,
873.000,0.00168467,
872.000,0.0018956,
871.000,0.00384905,
870.000,0.00395814,
869.000,0.00522252,
868.000,0.00614171,
867.000,0.00595869,
866.000,0.00652477,
865.000,0.00711575,
864.000,0.00702594,
863.000,0.00604064,
862.000,0.00403866,
861.000,0.0032849,
860.000,0.00441203,
859.000,0.00450546,
858.000,0.00300539,
857.000,0.0028701,
856.000,0.00484698,
855.000,0.00649261,
854.000,0.00721274,
853.000,0.007057,
852.000,0.00541997,
851.000,0.00311624,
850.000,0.00155773,
849.000,0.000935644,
848.000,0.00195894,
847.000,0.00239034,
846.000,0.000907751,
845.000,0.00156242,
844.000,0.00388268,
843.000,0.00527265,
842.000,0.0060426,
841.000,0.00640435,
840.000,0.00599213,
839.000,0.00538288,
838.000,0.00538533,
837.000,0.00492317,
836.000,0.00343082,
835.000,0.00217371,
834.000,0.00209994,
833.000,0.00272434,
832.000,0.00330783,
831.000,0.00379802,
830.000,0.00418984,
829.000,0.00511975,
828.000,0.00613181,
827.000,0.00642673,
826.000,0.0048003,
825.000,0.00169871,
824.000,0.0024423,
823.000,0.00602896,
822.000,0.00832142,
821.000,0.00859296,
820.000,0.00746635,
819.000,0.00576314,
818.000,0.0042824,
817.000,0.00228495,
816.000,0.000594491,
815.000,0.00237247,
814.000,0.00388301,
813.000,0.00371357,
812.000,0.00327567,
811.000,0.00293943,
810.000,0.00430713,
809.000,0.00737455,
808.000,0.00986913,
807.000,0.0100312,
806.000,0.00810815,
805.000,0.00618328,
804.000,0.00432276,
803.000,0.00261142,
802.000,0.00310109,
801.000,0.00369575,
800.000,0.00223942,
799.000,0.000845037,
798.000,0.00218919,
797.000,0.00438365,
796.000,0.00606237,
795.000,0.00664453,
794.000,0.00516525,
793.000,0.00313611,
792.000,0.00270891,
791.000,0.00345514,
790.000,0.00420719,
789.000,0.00525803,
788.000,0.00659567,
787.000,0.00722986,
786.000,0.00644964,
785.000,0.00479713,
784.000,0.00353319,
783.000,0.00374172,
782.000,0.00420548,
781.000,0.00440428,
780.000,0.00444435,
779.000,0.0055747,
778.000,0.00441935,
777.000,0.00116857,
776.000,0.0036678,
775.000,0.00557219,
774.000,0.00424105,
773.000,0.00245351,
772.000,0.000960058,
771.000,0.00145486,
770.000,0.00278492,
769.000,0.00244447,
768.000,0.000811887,
767.000,0.00256358,
766.000,0.00622555,
765.000,0.00855064,
764.000,0.00831652,
763.000,0.00562446,
762.000,0.00260123,
761.000,0.00147813,
760.000,0.00285934,
759.000,0.0047873,
758.000,0.00512726,
757.000,0.00387532,
756.000,0.00485433,
755.000,0.00822921,
754.000,0.0100854,
753.000,0.00867223,
752.000,0.00529546,
751.000,0.0030448,
750.000,0.00164384,
749.000,0.00298639,
748.000,0.00746088,
747.000,0.00975506,
746.000,0.0094944,
745.000,0.00864438,
744.000,0.00754858,
743.000,0.00600403,
742.000,0.00480473,
741.000,0.00513283,
740.000,0.00592211,
739.000,0.00594529,
738.000,0.0054955,
737.000,0.00611028,
736.000,0.00780688,
735.000,0.00866346,
734.000,0.00806311,
733.000,0.00670201,
732.000,0.00510817,
731.000,0.00340546,
730.000,0.00203328,
729.000,0.00188075,
728.000,0.00351649,
727.000,0.00662101,
726.000,0.00978048,
725.000,0.0111809,
724.000,0.0100415,
723.000,0.00721936,
722.000,0.0043495,
721.000,0.00255924,
720.000,0.00243672,
719.000,0.00351845,
718.000,0.00374389,
717.000,0.00267781,
716.000,0.0011451,
715.000,0.000187638,
714.000,0.000707127,
713.000,0.000893032,
712.000,0.00084602,
711.000,0.00150372,
710.000,0.00245699,
709.000,0.00413531,
708.000,0.00588023,
707.000,0.00604724,
706.000,0.00421132,
705.000,0.00402488,
704.000,0.00694156,
703.000,0.00891807,
702.000,0.00895579,
701.000,0.00813384,
700.000,0.00716273,
699.000,0.00574838,
698.000,0.00331007,
697.000,0.00229379,
696.000,0.0033768,
695.000,0.00326344,
694.000,0.0039171,
693.000,0.00603375,
692.000,0.00707175,
691.000,0.0047688,
690.000,0.00139699,
689.000,0.00312055,
688.000,0.00475652,
687.000,0.00524055,
686.000,0.0074489,
685.000,0.00992182,
684.000,0.0108967,
683.000,0.00778423,
682.000,0.00335091,
681.000,0.00583364,
680.000,0.0102657,
679.000,0.0129375,
678.000,0.0134594,
677.000,0.0122567,
676.000,0.00767835,
675.000,0.00161932,
674.000,0.0048639,
673.000,0.00774782,
672.000,0.00695131,
671.000,0.00565673,
670.000,0.00463873,
669.000,0.00376521,
668.000,0.00206183,
667.000,0.00364739,
666.000,0.00729932,
665.000,0.00956631,
664.000,0.00881429,
663.000,0.00464817,
662.000,0.00293464,
661.000,0.00510256,
660.000,0.00427268,
659.000,0.00255104,
658.000,0.00313811,
657.000,0.00398426,
656.000,0.00434853,
655.000,0.00408778,
654.000,0.00343667,
653.000,0.00414014,
652.000,0.00757929,
651.000,0.0110881,
650.000,0.0127392,
649.000,0.009866,
648.000,0.00348933,
647.000,0.00366634,
646.000,0.0067584,
645.000,0.00647039,
644.000,0.00545495,
643.000,0.00561249,
642.000,0.00728227,
641.000,0.00966616,
640.000,0.010938,
639.000,0.00974029,
638.000,0.00708919,
637.000,0.00445138,
636.000,0.00319864,
635.000,0.00447095,
634.000,0.00527527,
633.000,0.00456064,
632.000,0.00489212,
631.000,0.00614718,
630.000,0.00531816,
629.000,0.00302335,
628.000,0.00450192,
627.000,0.00693865,
626.000,0.00609066,
625.000,0.00377582,
624.000,0.00295631,
623.000,0.00417334,
622.000,0.00430758,
621.000,0.00218887,
620.000,0.002706,
619.000,0.00623598,
618.000,0.00946819,
617.000,0.0120731,
616.000,0.0140925,
615.000,0.0148163,
614.000,0.01475,
613.000,0.0114649,
612.000,0.00716641,
611.000,0.0124314,
610.000,0.0204296,
609.000,0.0237598,
608.000,0.0239752,
607.000,0.0228635,
606.000,0.0205453,
605.000,0.0166595,
604.000,0.0139989,
603.000,0.0137661,
602.000,0.0127167,
601.000,0.00840453,
600.000,0.0050908,
599.000,0.00708907,
598.000,0.00878911,
597.000,0.00860294,
596.000,0.00948641,
595.000,0.0101339,
594.000,0.00757126,
593.000,0.0032885,
592.000,0.00104669,
591.000,0.00183287,
590.000,0.00443241,
589.000,0.00617121,
588.000,0.00596261,
587.000,0.0036136,
586.000,0.00237234,
585.000,0.0065064,
584.000,0.0117943,
583.000,0.0138377,
582.000,0.0110854,
581.000,0.00632777,
580.000,0.00391965,
579.000,0.00387999,
578.000,0.00447622,
577.000,0.00601417,
576.000,0.00866892,
575.000,0.0111336,
574.000,0.0141149,
573.000,0.0181828,
572.000,0.0195742,
571.000,0.016369,
570.000,0.011963,
569.000,0.00714133,
568.000,0.00532329,
567.000,0.00975067,
566.000,0.0118623,
565.000,0.0105056,
564.000,0.00864442,
563.000,0.00664403,
562.000,0.00503154,
561.000,0.00527623,
560.000,0.0092359,
559.000,0.0159641,
558.000,0.0200033,
557.000,0.0179398,
556.000,0.011003,
555.000,0.00646471,
554.000,0.0101682,
553.000,0.0144348,
552.000,0.0161024,
551.000,0.0162296,
550.000,0.0164717,
549.000,0.0183122,
548.000,0.0197407,
547.000,0.0176481,
546.000,0.012487,
545.000,0.00721027,
544.000,0.00610726,
543.000,0.0101784,
542.000,0.0122395,
541.000,0.00866275,
540.000,0.00378726,
539.000,0.00461296,
538.000,0.00776882,
537.000,0.0116987,
536.000,0.0153705,
535.000,0.0169533,
534.000,0.0165188,
533.000,0.0156999,
532.000,0.0166518,
531.000,0.0172188,
530.000,0.0148988,
529.000,0.00988429,
528.000,0.00477567,
527.000,0.00483416,
526.000,0.00896163,
525.000,0.0127474,
524.000,0.0154792,
523.000,0.0159264,
522.000,0.013179,
521.000,0.00636109,
520.000,0.00306517,
519.000,0.00897709,
518.000,0.0121692,
517.000,0.0128012,
516.000,0.0116235,
515.000,0.00824963,
514.000,0.00717037,
513.000,0.00526224,
512.000,0.00291514,
511.000,0.012036,
510.000,0.0221161,
509.000,0.0262956,
508.000,0.0233142,
507.000,0.0157879,
506.000,0.00715226,
505.000,0.00576425,
504.000,0.0186823,
503.000,0.0283042,
502.000,0.0297689,
501.000,0.0293997,
500.000,0.0293699,
499.000,0.026278,
498.000,0.0221399,
497.000,0.0238092,
496.000,0.0308516,
495.000,0.0341246,
494.000,0.0284341,
493.000,0.0158245,
492.000,0.00964614,
491.000,0.0227462,
490.000,0.0389418,
489.000,0.0464506,
488.000,0.0422995,
487.000,0.0273681,
486.000,0.00930259,
485.000,0.0105182,
484.000,0.0224106,
483.000,0.0300708,
482.000,0.0378728,
481.000,0.0447931,
480.000,0.0437956,
479.000,0.034118,
478.000,0.0165564,
477.000,0.00544275,
476.000,0.019513,
475.000,0.0293938,
474.000,0.0315435,
473.000,0.0262897,
472.000,0.0154987,
471.000,0.0141431,
470.000,0.0161251,
469.000,0.00743008,
468.000,0.0124003,
467.000,0.0322113,
466.000,0.0444009,
465.000,0.0502212,
464.000,0.0511911,
463.000,0.0528212,
462.000,0.0563369,
461.000,0.0548745,
460.000,0.0503145,
459.000,0.0485485,
458.000,0.0497515,
457.000,0.0498164,
456.000,0.0469806,
455.000,0.0416403,
454.000,0.0369148,
453.000,0.0398291,
452.000,0.0460552,
451.000,0.0422012,
450.000,0.0408814,
449.000,0.0611462,
448.000,0.0793741,
447.000,0.0791718,
446.000,0.0652493,
445.000,0.047726,
444.000,0.0319344,
443.000,0.0237445,
442.000,0.0375033,
441.000,0.0585316,
440.000,0.0632465,
439.000,0.0503404,
438.000,0.0256323,
437.000,0.00385196,
436.000,0.0143445,
435.000,0.0254908,
434.000,0.0402932,
433.000,0.0565559,
432.000,0.0588249,
431.000,0.0418328,
430.000,0.0244071,
429.000,0.0270276,
428.000,0.0224266,
427.000,0.0193561,
426.000,0.0317389,
425.000,0.0439307,
424.000,0.0604097,
423.000,0.0843394,
422.000,0.105075,
421.000,0.110584,
420.000,0.0937687,
419.000,0.0611859,
418.000,0.0533331,
417.000,0.0761976,
416.000,0.0876169,
415.000,0.08305,
414.000,0.08177,
413.000,0.0990514,
412.000,0.124584,
411.000,0.139531,
410.000,0.138944,
409.000,0.114556,
408.000,0.0783093,
407.000,0.0418314,
406.000,0.00791554,
405.000,0.0583882,
404.000,0.102362,
403.000,0.110501,
402.000,0.137085,
401.000,0.203228,
400.000,0.255939,
