Wavelength nm.	kine_164638 - ...	kine_164638 - ...	kine_164638 - ...	kine_164638 - ...	kine_164638 - ...	kine_164638 - ...	kine_164638 - ...	kine_164638 - ...	kine_164638 - ...	kine_164638 - ...	kine_164638 - ...	kine_164638 - ...	kine_164638 - ...	kine_164638 - ...	kine_164638 - ...	kine_164638 - ...	kine_164638 - ...	kine_164638 - ...	kine_164638 - ...	kine_164638 - ...	kine_164638 - ...	kine_164638 - ...	kine_164638 - ...	kine_164638 - ...	kine_164638 - ...	kine_164638 - ...	kine_164638 - ...	kine_164638 - ...	kine_164638 - ...	kine_164638 - ...	kine_164638 - ...	kine_164638 - ...	kine_164638 - ...	kine_164638 - ...	kine_164638 - ...	kine_164638 - ...	kine_164638 - ...	kine_164638 - ...	kine_164638 - ...	kine_164638 - ...	kine_164638 - ...	kine_164638 - ...	kine_164638 - ...	kine_164638 - ...	kine_164638 - ...	kine_164638 - ...	kine_164638 - ...	kine_164638 - ...	kine_164638 - ...	kine_164638 - ...	kine_164638 - ...	kine_164638 - ...	kine_164638 - ...	kine_164638 - ...	kine_164638 - ...	kine_164638 - ...	kine_164638 - ...	kine_164638 - ...	kine_164638 - ...	kine_164638 - ...	kine_164638 - ...	kine_164638 - ...	kine_164638 - ...	kine_164638 - ...	kine_164638 - ...	kine_164638 - ...	kine_164638 - ...	kine_164638 - ...	kine_164638 - ...	kine_164638 - ...	kine_164638 - ...	kine_164638 - ...	kine_164638 - ...	kine_164638 - ...	kine_164638 - ...	kine_164638 - ...	kine_164638 - ...	kine_164638 - ...	kine_164638 - ...	kine_164638 - ...	kine_164638 - ...	kine_164638 - ...	kine_164638 - ...	kine_164638 - ...	kine_164638 - ...	kine_164638 - ...	kine_164638 - ...	kine_164638 - ...	kine_164638 - ...	kine_164638 - ...	kine_164638 - ...	kine_164638 - ...	kine_164638 - ...	kine_164638 - ...	kine_164638 - ...	kine_164638 - ...	kine_164638 - ...	kine_164638 - ...	kine_164638 - ...	kine_164638 - ...
500.00	0.49057	0.48990	0.48667	0.48505	0.48304	0.48041	0.47873	0.47756	0.47515	0.47366	0.47162	0.46997	0.46874	0.46714	0.46565	0.46466	0.46335	0.46162	0.46070	0.45965	0.45874	0.45674	0.45645	0.45499	0.45452	0.45358	0.45180	0.45117	0.45095	0.44980	0.44886	0.44853	0.44738	0.44652	0.44660	0.44520	0.44494	0.44388	0.44357	0.44311	0.44283	0.44199	0.44154	0.44077	0.44017	0.43969	0.43911	0.43939	0.43776	0.43781	0.43765	0.43690	0.43724	0.43662	0.43593	0.43564	0.43510	0.43520	0.43473	0.43446	0.43377	0.43333	0.43293	0.43236	0.43298	0.43264	0.43217	0.43188	0.43156	0.43128	0.43083	0.43115	0.43063	0.43097	0.43026	0.42994	0.42947	0.42990	0.42903	0.42928	0.42929	0.42872	0.42857	0.42878	0.42880	0.42842	0.42862	0.42773	0.42742	0.42762	0.42697	0.42771	0.42763	0.42727	0.42670	0.42690	0.42653	0.42622	0.42597	0.42582
501.00	0.49481	0.49218	0.49054	0.48799	0.48651	0.48428	0.48229	0.47994	0.47903	0.47743	0.47592	0.47384	0.47284	0.47138	0.46924	0.46760	0.46611	0.46488	0.46405	0.46299	0.46187	0.46023	0.45947	0.45836	0.45695	0.45591	0.45530	0.45493	0.45430	0.45311	0.45202	0.45129	0.45044	0.44947	0.44903	0.44802	0.44798	0.44678	0.44639	0.44583	0.44541	0.44485	0.44513	0.44299	0.44340	0.44296	0.44157	0.44220	0.44075	0.44076	0.43977	0.44018	0.43929	0.43962	0.43861	0.43885	0.43828	0.43853	0.43777	0.43717	0.43683	0.43660	0.43676	0.43576	0.43611	0.43497	0.43503	0.43547	0.43500	0.43407	0.43391	0.43394	0.43360	0.43371	0.43359	0.43240	0.43325	0.43273	0.43294	0.43278	0.43261	0.43238	0.43153	0.43221	0.43154	0.43168	0.43113	0.43117	0.43145	0.43035	0.43100	0.43109	0.43090	0.43067	0.43031	0.43004	0.43023	0.43054	0.42989	0.43000
502.00	0.49897	0.49632	0.49506	0.49270	0.49072	0.48919	0.48691	0.48451	0.48341	0.48106	0.47953	0.47848	0.47660	0.47528	0.47338	0.47181	0.47021	0.46907	0.46857	0.46694	0.46537	0.46425	0.46346	0.46171	0.46154	0.46059	0.45909	0.45774	0.45787	0.45726	0.45651	0.45507	0.45484	0.45353	0.45363	0.45294	0.45163	0.45175	0.45035	0.44997	0.44963	0.44937	0.44775	0.44756	0.44730	0.44699	0.44587	0.44600	0.44540	0.44508	0.44470	0.44440	0.44320	0.44330	0.44365	0.44300	0.44225	0.44190	0.44211	0.44191	0.44166	0.44016	0.44065	0.44008	0.44038	0.43973	0.43928	0.43951	0.43873	0.43844	0.43915	0.43840	0.43800	0.43790	0.43817	0.43783	0.43723	0.43720	0.43671	0.43635	0.43686	0.43683	0.43685	0.43645	0.43654	0.43619	0.43626	0.43590	0.43578	0.43520	0.43580	0.43571	0.43531	0.43536	0.43454	0.43492	0.43469	0.43501	0.43406	0.43433
503.00	0.50488	0.50297	0.50066	0.49877	0.49639	0.49473	0.49342	0.49106	0.48974	0.48697	0.48566	0.48390	0.48215	0.48108	0.47936	0.47748	0.47591	0.47531	0.47422	0.47272	0.47161	0.47091	0.46967	0.46828	0.46777	0.46647	0.46591	0.46408	0.46341	0.46268	0.46221	0.46155	0.46087	0.46019	0.45936	0.45835	0.45750	0.45691	0.45656	0.45639	0.45502	0.45514	0.45441	0.45409	0.45311	0.45252	0.45259	0.45242	0.45173	0.45119	0.45093	0.44995	0.44983	0.44954	0.44959	0.44928	0.44893	0.44826	0.44827	0.44802	0.44779	0.44722	0.44637	0.44686	0.44699	0.44617	0.44650	0.44534	0.44597	0.44536	0.44493	0.44482	0.44483	0.44453	0.44365	0.44381	0.44386	0.44409	0.44348	0.44365	0.44295	0.44288	0.44254	0.44315	0.44242	0.44254	0.44219	0.44224	0.44204	0.44181	0.44248	0.44209	0.44188	0.44193	0.44179	0.44117	0.44038	0.44105	0.44139	0.44136
504.00	0.50977	0.50893	0.50657	0.50464	0.50299	0.50085	0.49840	0.49691	0.49468	0.49325	0.49176	0.49028	0.48910	0.48664	0.48615	0.48430	0.48259	0.48171	0.48038	0.47908	0.47748	0.47645	0.47583	0.47388	0.47374	0.47295	0.47236	0.47141	0.46994	0.47047	0.46836	0.46737	0.46757	0.46704	0.46618	0.46511	0.46408	0.46386	0.46366	0.46275	0.46208	0.46105	0.46102	0.46079	0.46071	0.45934	0.45949	0.45893	0.45877	0.45836	0.45740	0.45740	0.45654	0.45648	0.45609	0.45561	0.45518	0.45523	0.45453	0.45373	0.45426	0.45377	0.45373	0.45260	0.45288	0.45257	0.45237	0.45241	0.45184	0.45148	0.45135	0.45152	0.45129	0.45088	0.45040	0.45036	0.45044	0.44991	0.45025	0.44984	0.45008	0.44990	0.44939	0.44922	0.44928	0.44907	0.44852	0.44800	0.44888	0.44837	0.44803	0.44833	0.44809	0.44880	0.44833	0.44768	0.44779	0.44697	0.44751	0.44734
505.00	0.51457	0.51314	0.51123	0.50954	0.50810	0.50523	0.50302	0.50160	0.49957	0.49787	0.49641	0.49503	0.49323	0.49149	0.49039	0.48878	0.48736	0.48640	0.48520	0.48408	0.48263	0.48189	0.48091	0.47937	0.47855	0.47777	0.47695	0.47578	0.47551	0.47441	0.47382	0.47266	0.47229	0.47093	0.47116	0.46995	0.46979	0.46834	0.46788	0.46808	0.46648	0.46730	0.46609	0.46505	0.46491	0.46491	0.46422	0.46292	0.46285	0.46298	0.46227	0.46201	0.46232	0.46169	0.46081	0.46054	0.46005	0.45946	0.45962	0.45926	0.45812	0.45913	0.45852	0.45798	0.45749	0.45775	0.45735	0.45683	0.45565	0.45643	0.45652	0.45599	0.45585	0.45542	0.45562	0.45562	0.45546	0.45554	0.45568	0.45462	0.45546	0.45470	0.45421	0.45456	0.45357	0.45407	0.45396	0.45382	0.45317	0.45355	0.45251	0.45343	0.45278	0.45282	0.45239	0.45282	0.45273	0.45223	0.45224	0.45189
506.00	0.51683	0.51613	0.51373	0.51149	0.50984	0.50848	0.50579	0.50395	0.50239	0.50048	0.49875	0.49713	0.49532	0.49398	0.49201	0.49180	0.49010	0.48810	0.48849	0.48659	0.48495	0.48424	0.48280	0.48220	0.48096	0.48027	0.47907	0.47859	0.47722	0.47676	0.47661	0.47554	0.47489	0.47401	0.47362	0.47230	0.47225	0.47136	0.47134	0.47021	0.47053	0.46969	0.46927	0.46828	0.46798	0.46746	0.46709	0.46713	0.46581	0.46535	0.46584	0.46537	0.46434	0.46427	0.46401	0.46373	0.46352	0.46270	0.46239	0.46230	0.46162	0.46179	0.46083	0.46070	0.45992	0.46048	0.46023	0.45998	0.45967	0.45925	0.45917	0.45927	0.45893	0.45874	0.45846	0.45798	0.45816	0.45780	0.45711	0.45739	0.45685	0.45677	0.45750	0.45737	0.45620	0.45631	0.45632	0.45588	0.45607	0.45571	0.45580	0.45521	0.45582	0.45472	0.45562	0.45547	0.45467	0.45474	0.45453	0.45438
507.00	0.51870	0.51642	0.51473	0.51211	0.50980	0.50805	0.50629	0.50434	0.50237	0.50102	0.49859	0.49744	0.49539	0.49449	0.49335	0.49220	0.49091	0.48937	0.48891	0.48689	0.48539	0.48461	0.48374	0.48265	0.48234	0.48092	0.48068	0.47980	0.47812	0.47734	0.47630	0.47579	0.47562	0.47466	0.47471	0.47320	0.47275	0.47206	0.47176	0.47114	0.47053	0.46966	0.46898	0.46819	0.46794	0.46761	0.46720	0.46695	0.46654	0.46637	0.46568	0.46562	0.46599	0.46455	0.46487	0.46365	0.46318	0.46376	0.46291	0.46321	0.46262	0.46225	0.46095	0.46117	0.46113	0.46111	0.46064	0.46048	0.46047	0.45978	0.45985	0.45958	0.45968	0.45886	0.45864	0.45854	0.45794	0.45797	0.45773	0.45826	0.45784	0.45670	0.45697	0.45735	0.45685	0.45608	0.45703	0.45599	0.45545	0.45577	0.45600	0.45595	0.45545	0.45561	0.45488	0.45496	0.45501	0.45465	0.45492	0.45402
508.00	0.51687	0.51565	0.51265	0.51045	0.50874	0.50566	0.50477	0.50244	0.50003	0.49904	0.49736	0.49571	0.49441	0.49267	0.49194	0.48949	0.48907	0.48745	0.48635	0.48447	0.48403	0.48259	0.48201	0.48099	0.48034	0.47989	0.47813	0.47717	0.47587	0.47507	0.47534	0.47479	0.47373	0.47283	0.47228	0.47097	0.47117	0.47049	0.46996	0.46868	0.46849	0.46814	0.46695	0.46667	0.46604	0.46588	0.46541	0.46459	0.46485	0.46426	0.46435	0.46276	0.46353	0.46278	0.46237	0.46162	0.46173	0.46135	0.46117	0.46071	0.46014	0.45944	0.45938	0.45961	0.45847	0.45819	0.45882	0.45814	0.45797	0.45731	0.45743	0.45724	0.45705	0.45681	0.45611	0.45623	0.45683	0.45502	0.45495	0.45544	0.45485	0.45477	0.45469	0.45419	0.45397	0.45392	0.45411	0.45386	0.45318	0.45317	0.45333	0.45349	0.45293	0.45262	0.45254	0.45211	0.45230	0.45199	0.45203	0.45190
509.00	0.51249	0.51013	0.50776	0.50633	0.50324	0.50142	0.49906	0.49779	0.49591	0.49387	0.49296	0.49056	0.48948	0.48832	0.48668	0.48528	0.48389	0.48256	0.48120	0.48036	0.47914	0.47800	0.47689	0.47607	0.47516	0.47443	0.47324	0.47226	0.47156	0.47046	0.46946	0.46919	0.46802	0.46718	0.46736	0.46701	0.46627	0.46510	0.46472	0.46364	0.46318	0.46292	0.46287	0.46211	0.46210	0.46082	0.46063	0.45996	0.45964	0.45832	0.45812	0.45847	0.45776	0.45745	0.45723	0.45643	0.45606	0.45567	0.45623	0.45507	0.45489	0.45369	0.45529	0.45411	0.45325	0.45315	0.45287	0.45297	0.45256	0.45156	0.45234	0.45207	0.45173	0.45170	0.45105	0.45008	0.45022	0.45086	0.45010	0.44961	0.44941	0.44889	0.44894	0.44842	0.44838	0.44859	0.44792	0.44781	0.44851	0.44748	0.44768	0.44732	0.44708	0.44701	0.44601	0.44653	0.44586	0.44626	0.44603	0.44575
510.00	0.50714	0.50510	0.50239	0.50026	0.49775	0.49574	0.49342	0.49190	0.48999	0.48820	0.48671	0.48462	0.48312	0.48101	0.48061	0.47964	0.47739	0.47612	0.47513	0.47398	0.47260	0.47192	0.47162	0.46952	0.46908	0.46738	0.46733	0.46616	0.46569	0.46395	0.46378	0.46334	0.46204	0.46131	0.46003	0.46006	0.45965	0.45892	0.45856	0.45752	0.45693	0.45574	0.45597	0.45567	0.45515	0.45482	0.45376	0.45402	0.45251	0.45221	0.45190	0.45090	0.45081	0.45072	0.44939	0.44959	0.44928	0.44896	0.44886	0.44857	0.44753	0.44850	0.44776	0.44675	0.44633	0.44629	0.44620	0.44598	0.44649	0.44545	0.44520	0.44498	0.44449	0.44444	0.44389	0.44330	0.44356	0.44325	0.44246	0.44343	0.44287	0.44192	0.44200	0.44198	0.44154	0.44071	0.44092	0.44115	0.44109	0.44063	0.44007	0.44052	0.43979	0.43981	0.43887	0.43996	0.43951	0.43947	0.43871	0.43895
511.00	0.50040	0.49808	0.49648	0.49394	0.49160	0.48875	0.48694	0.48497	0.48297	0.48150	0.47980	0.47772	0.47641	0.47437	0.47356	0.47190	0.47005	0.46919	0.46867	0.46690	0.46617	0.46490	0.46334	0.46245	0.46163	0.45971	0.45972	0.45870	0.45762	0.45707	0.45593	0.45533	0.45493	0.45368	0.45315	0.45266	0.45204	0.45098	0.45037	0.44963	0.44939	0.44818	0.44806	0.44798	0.44700	0.44726	0.44678	0.44545	0.44463	0.44478	0.44441	0.44334	0.44389	0.44282	0.44290	0.44256	0.44167	0.44103	0.44034	0.44075	0.43957	0.43958	0.43959	0.44000	0.43913	0.43896	0.43845	0.43752	0.43851	0.43830	0.43705	0.43662	0.43668	0.43647	0.43573	0.43573	0.43496	0.43485	0.43473	0.43415	0.43451	0.43375	0.43405	0.43329	0.43379	0.43335	0.43273	0.43243	0.43282	0.43241	0.43243	0.43239	0.43193	0.43153	0.43147	0.43120	0.43122	0.43057	0.43061	0.43087
512.00	0.49312	0.49150	0.48936	0.48684	0.48494	0.48214	0.47922	0.47750	0.47584	0.47393	0.47161	0.47002	0.46846	0.46751	0.46539	0.46483	0.46263	0.46147	0.46022	0.45913	0.45759	0.45650	0.45574	0.45366	0.45360	0.45237	0.45139	0.45061	0.44946	0.44897	0.44821	0.44773	0.44625	0.44457	0.44448	0.44486	0.44331	0.44252	0.44201	0.44195	0.44079	0.44079	0.44013	0.43948	0.43886	0.43846	0.43754	0.43756	0.43653	0.43693	0.43545	0.43461	0.43542	0.43469	0.43430	0.43420	0.43331	0.43244	0.43192	0.43209	0.43136	0.43126	0.43092	0.43012	0.42952	0.42956	0.42948	0.42866	0.42935	0.42810	0.42823	0.42852	0.42739	0.42760	0.42767	0.42650	0.42588	0.42636	0.42621	0.42611	0.42618	0.42559	0.42503	0.42497	0.42477	0.42466	0.42433	0.42365	0.42372	0.42354	0.42368	0.42329	0.42301	0.42299	0.42202	0.42210	0.42228	0.42243	0.42140	0.42100
513.00	0.48831	0.48634	0.48409	0.48116	0.47875	0.47638	0.47337	0.47151	0.47003	0.46777	0.46585	0.46395	0.46281	0.46057	0.45968	0.45803	0.45619	0.45516	0.45375	0.45239	0.45096	0.45118	0.44910	0.44775	0.44648	0.44626	0.44456	0.44381	0.44294	0.44132	0.44114	0.43983	0.43973	0.43834	0.43783	0.43740	0.43676	0.43629	0.43475	0.43479	0.43400	0.43308	0.43316	0.43264	0.43224	0.43133	0.43069	0.43066	0.42965	0.42937	0.42887	0.42818	0.42804	0.42767	0.42695	0.42627	0.42545	0.42534	0.42530	0.42465	0.42435	0.42477	0.42357	0.42343	0.42275	0.42274	0.42254	0.42239	0.42162	0.42128	0.42214	0.42032	0.42055	0.42035	0.42035	0.41941	0.41947	0.41934	0.41926	0.41891	0.41879	0.41767	0.41816	0.41790	0.41766	0.41726	0.41693	0.41674	0.41719	0.41606	0.41626	0.41596	0.41592	0.41581	0.41595	0.41511	0.41498	0.41455	0.41411	0.41484
514.00	0.48296	0.48145	0.47879	0.47631	0.47344	0.47190	0.46906	0.46739	0.46518	0.46274	0.46091	0.45931	0.45693	0.45518	0.45416	0.45260	0.45122	0.44988	0.44844	0.44729	0.44519	0.44450	0.44323	0.44246	0.44126	0.44045	0.43904	0.43746	0.43666	0.43691	0.43589	0.43391	0.43394	0.43271	0.43247	0.43136	0.43021	0.43004	0.42852	0.42926	0.42816	0.42735	0.42683	0.42623	0.42605	0.42518	0.42441	0.42346	0.42318	0.42233	0.42186	0.42212	0.42173	0.42105	0.42050	0.42054	0.41974	0.41950	0.41868	0.41878	0.41882	0.41761	0.41747	0.41730	0.41625	0.41713	0.41633	0.41614	0.41540	0.41476	0.41474	0.41494	0.41398	0.41386	0.41445	0.41466	0.41379	0.41340	0.41279	0.41262	0.41220	0.41249	0.41239	0.41161	0.41219	0.41150	0.41150	0.41102	0.41068	0.41044	0.41096	0.41018	0.41012	0.41056	0.40865	0.40930	0.40972	0.40897	0.40844	0.40819
515.00	0.48204	0.48015	0.47763	0.47506	0.47226	0.46943	0.46745	0.46568	0.46304	0.46152	0.45902	0.45714	0.45592	0.45321	0.45275	0.45086	0.44906	0.44783	0.44641	0.44459	0.44287	0.44204	0.44112	0.44018	0.43844	0.43697	0.43635	0.43498	0.43486	0.43437	0.43285	0.43190	0.43127	0.42967	0.42999	0.42875	0.42802	0.42722	0.42715	0.42582	0.42537	0.42435	0.42384	0.42327	0.42263	0.42219	0.42201	0.42104	0.42051	0.41984	0.42018	0.41918	0.41849	0.41894	0.41783	0.41776	0.41758	0.41676	0.41599	0.41625	0.41550	0.41430	0.41435	0.41449	0.41394	0.41367	0.41273	0.41289	0.41312	0.41275	0.41266	0.41217	0.41138	0.41151	0.41064	0.41103	0.41081	0.41100	0.41059	0.40981	0.40947	0.40941	0.40976	0.40904	0.40972	0.40906	0.40863	0.40898	0.40799	0.40831	0.40816	0.40817	0.40767	0.40735	0.40705	0.40667	0.40713	0.40681	0.40691	0.40605
516.00	0.48338	0.48226	0.47821	0.47618	0.47361	0.47166	0.46940	0.46645	0.46434	0.46264	0.46046	0.45845	0.45618	0.45543	0.45295	0.45179	0.45025	0.44817	0.44744	0.44566	0.44403	0.44299	0.44175	0.44026	0.43895	0.43747	0.43686	0.43545	0.43440	0.43455	0.43297	0.43253	0.43106	0.43054	0.42977	0.42951	0.42835	0.42695	0.42667	0.42607	0.42564	0.42473	0.42390	0.42339	0.42247	0.42232	0.42201	0.42177	0.42092	0.42057	0.42014	0.41983	0.41936	0.41855	0.41774	0.41773	0.41770	0.41699	0.41728	0.41647	0.41595	0.41528	0.41517	0.41439	0.41491	0.41448	0.41425	0.41388	0.41304	0.41339	0.41293	0.41265	0.41226	0.41235	0.41204	0.41171	0.41216	0.41163	0.41053	0.41087	0.41062	0.41028	0.41023	0.41033	0.41023	0.40909	0.40982	0.40967	0.40896	0.40937	0.40880	0.40901	0.40899	0.40850	0.40735	0.40794	0.40726	0.40800	0.40765	0.40788
517.00	0.48785	0.48614	0.48340	0.48167	0.47910	0.47613	0.47359	0.47163	0.46916	0.46737	0.46491	0.46320	0.46158	0.45939	0.45658	0.45598	0.45438	0.45269	0.45129	0.44995	0.44788	0.44653	0.44530	0.44406	0.44262	0.44222	0.44155	0.43970	0.43931	0.43805	0.43697	0.43655	0.43530	0.43442	0.43352	0.43270	0.43287	0.43164	0.43146	0.43009	0.42982	0.42934	0.42859	0.42721	0.42735	0.42692	0.42657	0.42555	0.42469	0.42465	0.42426	0.42413	0.42349	0.42261	0.42258	0.42216	0.42136	0.42105	0.42074	0.42068	0.42022	0.42007	0.41917	0.41930	0.41868	0.41874	0.41828	0.41840	0.41757	0.41765	0.41740	0.41695	0.41671	0.41696	0.41657	0.41615	0.41646	0.41625	0.41510	0.41535	0.41499	0.41513	0.41480	0.41481	0.41441	0.41456	0.41403	0.41402	0.41434	0.41320	0.41387	0.41367	0.41392	0.41316	0.41309	0.41269	0.41294	0.41273	0.41240	0.41275
518.00	0.49542	0.49239	0.49018	0.48776	0.48540	0.48358	0.48078	0.47852	0.47593	0.47373	0.47160	0.47046	0.46870	0.46660	0.46439	0.46298	0.46083	0.45934	0.45826	0.45627	0.45594	0.45409	0.45240	0.45214	0.45086	0.44903	0.44814	0.44691	0.44703	0.44523	0.44455	0.44394	0.44195	0.44151	0.44076	0.44074	0.43970	0.43874	0.43877	0.43762	0.43675	0.43642	0.43573	0.43524	0.43434	0.43415	0.43344	0.43285	0.43238	0.43158	0.43151	0.43084	0.43092	0.42961	0.43012	0.42935	0.42924	0.42862	0.42847	0.42818	0.42762	0.42859	0.42759	0.42713	0.42672	0.42618	0.42645	0.42584	0.42620	0.42543	0.42531	0.42464	0.42504	0.42441	0.42447	0.42366	0.42346	0.42364	0.42343	0.42289	0.42305	0.42250	0.42320	0.42235	0.42235	0.42194	0.42326	0.42218	0.42142	0.42195	0.42187	0.42160	0.42181	0.42110	0.42127	0.42056	0.42088	0.42176	0.42065	0.42088
519.00	0.50310	0.50145	0.49822	0.49643	0.49322	0.49100	0.48882	0.48652	0.48480	0.48173	0.48030	0.47785	0.47673	0.47473	0.47291	0.47169	0.46910	0.46801	0.46655	0.46528	0.46356	0.46241	0.46172	0.46001	0.45884	0.45844	0.45678	0.45578	0.45428	0.45381	0.45218	0.45219	0.45098	0.45028	0.44921	0.44884	0.44780	0.44739	0.44627	0.44710	0.44559	0.44503	0.44390	0.44369	0.44348	0.44255	0.44277	0.44191	0.44087	0.44073	0.44122	0.44015	0.44009	0.43931	0.43879	0.43850	0.43833	0.43669	0.43689	0.43633	0.43712	0.43577	0.43612	0.43589	0.43558	0.43548	0.43508	0.43490	0.43430	0.43421	0.43412	0.43383	0.43420	0.43335	0.43343	0.43312	0.43303	0.43238	0.43191	0.43262	0.43207	0.43161	0.43205	0.43121	0.43158	0.43058	0.43161	0.43054	0.43131	0.43139	0.43071	0.43083	0.43060	0.43053	0.43070	0.43017	0.42979	0.43006	0.43046	0.42972
520.00	0.51169	0.50952	0.50628	0.50387	0.50138	0.49918	0.49722	0.49485	0.49328	0.49096	0.48934	0.48656	0.48423	0.48272	0.48127	0.47952	0.47776	0.47658	0.47491	0.47377	0.47282	0.47069	0.46911	0.46898	0.46765	0.46654	0.46501	0.46429	0.46302	0.46229	0.46130	0.46063	0.46021	0.45813	0.45831	0.45739	0.45654	0.45714	0.45518	0.45499	0.45370	0.45433	0.45322	0.45212	0.45262	0.45096	0.45146	0.45068	0.45061	0.44907	0.44919	0.44927	0.44768	0.44782	0.44745	0.44743	0.44693	0.44667	0.44632	0.44621	0.44576	0.44453	0.44472	0.44451	0.44451	0.44471	0.44419	0.44409	0.44349	0.44371	0.44301	0.44232	0.44195	0.44183	0.44159	0.44178	0.44145	0.44087	0.44136	0.44106	0.44115	0.44103	0.44021	0.44092	0.44040	0.44047	0.43980	0.44046	0.43983	0.44026	0.44016	0.43947	0.43946	0.43945	0.43972	0.43972	0.43901	0.43884	0.43891	0.43947
521.00	0.51789	0.51583	0.51430	0.51124	0.50861	0.50693	0.50396	0.50134	0.49980	0.49764	0.49533	0.49328	0.49206	0.48947	0.48842	0.48711	0.48455	0.48342	0.48243	0.48073	0.48037	0.47793	0.47696	0.47546	0.47479	0.47372	0.47303	0.47221	0.47027	0.46963	0.46817	0.46853	0.46741	0.46711	0.46662	0.46549	0.46482	0.46365	0.46339	0.46306	0.46153	0.46207	0.46102	0.46015	0.45959	0.45919	0.45865	0.45877	0.45729	0.45808	0.45625	0.45674	0.45678	0.45597	0.45511	0.45516	0.45528	0.45391	0.45426	0.45455	0.45378	0.45323	0.45324	0.45163	0.45207	0.45188	0.45148	0.45140	0.45123	0.45072	0.45049	0.45068	0.45012	0.44994	0.45009	0.44992	0.44898	0.44932	0.44841	0.44856	0.44810	0.44889	0.44786	0.44845	0.44826	0.44759	0.44816	0.44736	0.44779	0.44679	0.44768	0.44721	0.44744	0.44768	0.44617	0.44693	0.44631	0.44667	0.44590	0.44644
522.00	0.52437	0.52122	0.51936	0.51667	0.51362	0.51125	0.50882	0.50685	0.50441	0.50198	0.50006	0.49919	0.49673	0.49459	0.49239	0.49203	0.48957	0.48911	0.48721	0.48596	0.48521	0.48400	0.48257	0.48169	0.47985	0.47891	0.47859	0.47673	0.47663	0.47467	0.47460	0.47351	0.47319	0.47268	0.47138	0.47147	0.47016	0.46978	0.46856	0.46816	0.46762	0.46640	0.46640	0.46584	0.46531	0.46370	0.46498	0.46417	0.46349	0.46308	0.46346	0.46231	0.46170	0.46093	0.46080	0.46069	0.46015	0.45957	0.45952	0.45951	0.45893	0.45871	0.45851	0.45778	0.45690	0.45678	0.45742	0.45656	0.45589	0.45618	0.45491	0.45585	0.45545	0.45475	0.45508	0.45495	0.45523	0.45401	0.45440	0.45434	0.45410	0.45357	0.45337	0.45337	0.45357	0.45305	0.45284	0.45244	0.45287	0.45216	0.45219	0.45246	0.45222	0.45229	0.45137	0.45194	0.45183	0.45116	0.45096	0.45088
523.00	0.52608	0.52324	0.52134	0.51821	0.51552	0.51356	0.51114	0.50858	0.50651	0.50500	0.50236	0.50100	0.49881	0.49728	0.49531	0.49415	0.49163	0.49117	0.48885	0.48854	0.48715	0.48624	0.48473	0.48425	0.48250	0.48082	0.48045	0.47971	0.47942	0.47811	0.47752	0.47614	0.47562	0.47483	0.47414	0.47266	0.47243	0.47190	0.47093	0.47041	0.46922	0.46880	0.46876	0.46807	0.46776	0.46733	0.46679	0.46603	0.46577	0.46533	0.46476	0.46414	0.46456	0.46342	0.46315	0.46281	0.46207	0.46243	0.46178	0.46102	0.46141	0.46068	0.46041	0.46086	0.46037	0.45957	0.45929	0.45912	0.45898	0.45828	0.45809	0.45758	0.45732	0.45682	0.45731	0.45651	0.45647	0.45655	0.45632	0.45671	0.45614	0.45550	0.45544	0.45499	0.45463	0.45532	0.45468	0.45428	0.45471	0.45451	0.45343	0.45416	0.45371	0.45376	0.45402	0.45308	0.45301	0.45341	0.45290	0.45317
524.00	0.52565	0.52292	0.52019	0.51800	0.51542	0.51280	0.51064	0.50808	0.50603	0.50409	0.50170	0.50037	0.49862	0.49632	0.49462	0.49335	0.49278	0.49043	0.48898	0.48747	0.48699	0.48487	0.48434	0.48306	0.48165	0.48134	0.48001	0.47940	0.47779	0.47780	0.47667	0.47566	0.47473	0.47395	0.47303	0.47250	0.47234	0.47121	0.47026	0.47000	0.46914	0.46829	0.46799	0.46743	0.46758	0.46620	0.46629	0.46586	0.46453	0.46468	0.46469	0.46362	0.46294	0.46325	0.46234	0.46230	0.46124	0.46103	0.46118	0.46098	0.46022	0.46054	0.45908	0.45928	0.45928	0.45826	0.45833	0.45792	0.45798	0.45740	0.45699	0.45711	0.45696	0.45656	0.45641	0.45605	0.45605	0.45529	0.45596	0.45616	0.45467	0.45437	0.45397	0.45492	0.45367	0.45416	0.45361	0.45332	0.45317	0.45302	0.45344	0.45309	0.45267	0.45212	0.45280	0.45191	0.45215	0.45169	0.45206	0.45221
525.00	0.52229	0.52043	0.51775	0.51535	0.51267	0.50993	0.50698	0.50468	0.50218	0.50129	0.49834	0.49656	0.49507	0.49371	0.49156	0.49050	0.48852	0.48640	0.48622	0.48479	0.48259	0.48232	0.48092	0.47952	0.47910	0.47795	0.47682	0.47594	0.47468	0.47442	0.47273	0.47193	0.47153	0.47063	0.47045	0.46840	0.46900	0.46775	0.46697	0.46710	0.46623	0.46572	0.46498	0.46411	0.46390	0.46312	0.46255	0.46208	0.46141	0.46161	0.46041	0.46047	0.45906	0.45888	0.45890	0.45894	0.45887	0.45777	0.45787	0.45741	0.45665	0.45631	0.45591	0.45591	0.45548	0.45486	0.45478	0.45454	0.45464	0.45388	0.45303	0.45370	0.45326	0.45324	0.45288	0.45225	0.45176	0.45210	0.45142	0.45146	0.45117	0.45069	0.45067	0.45013	0.45033	0.44938	0.44985	0.44971	0.44964	0.44954	0.44896	0.44905	0.44848	0.44824	0.44807	0.44828	0.44782	0.44709	0.44817	0.44778
526.00	0.51837	0.51595	0.51284	0.50909	0.50668	0.50419	0.50215	0.49977	0.49750	0.49511	0.49331	0.49095	0.48937	0.48780	0.48667	0.48520	0.48299	0.48160	0.48064	0.47943	0.47791	0.47649	0.47585	0.47427	0.47325	0.47177	0.47108	0.47076	0.46925	0.46845	0.46775	0.46655	0.46596	0.46510	0.46404	0.46335	0.46299	0.46246	0.46181	0.46107	0.45973	0.46048	0.45881	0.45811	0.45798	0.45761	0.45677	0.45626	0.45575	0.45474	0.45521	0.45415	0.45377	0.45434	0.45331	0.45236	0.45277	0.45120	0.45194	0.45096	0.45028	0.44970	0.45028	0.44948	0.44941	0.44868	0.44903	0.44841	0.44767	0.44860	0.44691	0.44719	0.44726	0.44644	0.44622	0.44560	0.44553	0.44573	0.44497	0.44492	0.44409	0.44409	0.44391	0.44356	0.44371	0.44385	0.44282	0.44364	0.44316	0.44233	0.44293	0.44257	0.44197	0.44217	0.44162	0.44105	0.44131	0.44117	0.44108	0.44081
527.00	0.51320	0.50939	0.50695	0.50336	0.49999	0.49727	0.49534	0.49268	0.49002	0.48810	0.48578	0.48549	0.48196	0.48099	0.47940	0.47726	0.47647	0.47452	0.47299	0.47238	0.47113	0.46954	0.46808	0.46717	0.46546	0.46517	0.46406	0.46235	0.46238	0.46069	0.46043	0.45926	0.45867	0.45746	0.45714	0.45655	0.45492	0.45449	0.45479	0.45270	0.45281	0.45224	0.45186	0.45101	0.45034	0.45012	0.44985	0.44815	0.44833	0.44730	0.44727	0.44713	0.44651	0.44584	0.44542	0.44482	0.44478	0.44384	0.44404	0.44316	0.44306	0.44202	0.44183	0.44218	0.44120	0.44088	0.44081	0.44036	0.43953	0.43985	0.43863	0.43899	0.43942	0.43885	0.43818	0.43870	0.43793	0.43824	0.43760	0.43740	0.43721	0.43689	0.43576	0.43656	0.43611	0.43578	0.43553	0.43570	0.43484	0.43462	0.43409	0.43449	0.43361	0.43441	0.43351	0.43327	0.43370	0.43302	0.43259	0.43210
528.00	0.50429	0.50192	0.49887	0.49613	0.49258	0.49029	0.48706	0.48528	0.48242	0.48084	0.47864	0.47702	0.47481	0.47335	0.47041	0.46930	0.46841	0.46625	0.46486	0.46380	0.46157	0.46100	0.46011	0.45897	0.45744	0.45723	0.45625	0.45523	0.45353	0.45346	0.45183	0.45092	0.45012	0.44895	0.44784	0.44795	0.44662	0.44573	0.44523	0.44465	0.44431	0.44269	0.44344	0.44179	0.44157	0.44101	0.44045	0.44018	0.43952	0.43917	0.43815	0.43783	0.43778	0.43648	0.43684	0.43605	0.43520	0.43450	0.43493	0.43383	0.43304	0.43396	0.43312	0.43327	0.43280	0.43269	0.43248	0.43126	0.43112	0.43056	0.42988	0.43032	0.43047	0.43046	0.42877	0.42942	0.42820	0.42928	0.42894	0.42806	0.42723	0.42757	0.42698	0.42681	0.42650	0.42676	0.42591	0.42650	0.42531	0.42517	0.42525	0.42508	0.42478	0.42397	0.42453	0.42440	0.42404	0.42305	0.42431	0.42343
529.00	0.49796	0.49506	0.49237	0.48888	0.48585	0.48354	0.48088	0.47820	0.47532	0.47362	0.47141	0.46920	0.46749	0.46578	0.46403	0.46317	0.46075	0.45888	0.45757	0.45583	0.45461	0.45343	0.45203	0.45190	0.44998	0.44913	0.44758	0.44664	0.44596	0.44496	0.44346	0.44307	0.44227	0.44124	0.43949	0.43998	0.43893	0.43751	0.43710	0.43627	0.43642	0.43467	0.43468	0.43355	0.43372	0.43294	0.43204	0.43183	0.43174	0.43000	0.43050	0.42996	0.42888	0.42834	0.42862	0.42713	0.42714	0.42683	0.42596	0.42602	0.42542	0.42488	0.42418	0.42451	0.42396	0.42369	0.42346	0.42376	0.42230	0.42185	0.42207	0.42215	0.42148	0.42078	0.42142	0.42152	0.42069	0.42005	0.41947	0.42009	0.41997	0.41954	0.41925	0.41899	0.41800	0.41726	0.41801	0.41772	0.41798	0.41648	0.41681	0.41670	0.41632	0.41662	0.41566	0.41573	0.41553	0.41523	0.41511	0.41478
530.00	0.49260	0.49019	0.48645	0.48399	0.48123	0.47787	0.47499	0.47224	0.46961	0.46730	0.46497	0.46314	0.46109	0.45868	0.45751	0.45598	0.45446	0.45230	0.45022	0.44966	0.44701	0.44645	0.44550	0.44426	0.44311	0.44202	0.44059	0.43933	0.43829	0.43735	0.43640	0.43529	0.43530	0.43259	0.43278	0.43220	0.43177	0.43066	0.42976	0.42934	0.42912	0.42791	0.42710	0.42606	0.42562	0.42507	0.42449	0.42485	0.42393	0.42280	0.42299	0.42153	0.42214	0.42101	0.42122	0.42034	0.41965	0.41966	0.41928	0.41843	0.41875	0.41721	0.41721	0.41675	0.41663	0.41677	0.41634	0.41559	0.41483	0.41522	0.41502	0.41454	0.41405	0.41403	0.41380	0.41376	0.41239	0.41204	0.41185	0.41268	0.41192	0.41107	0.41185	0.41135	0.41084	0.41052	0.41057	0.40976	0.41016	0.40959	0.41062	0.40985	0.40993	0.40974	0.40857	0.40847	0.40826	0.40799	0.40823	0.40700
531.00	0.48941	0.48658	0.48327	0.47929	0.47683	0.47386	0.47113	0.46874	0.46595	0.46373	0.46192	0.45964	0.45689	0.45555	0.45342	0.45174	0.44958	0.44750	0.44689	0.44484	0.44384	0.44197	0.44072	0.43911	0.43925	0.43722	0.43604	0.43455	0.43381	0.43233	0.43235	0.43058	0.43018	0.42893	0.42832	0.42731	0.42644	0.42548	0.42523	0.42491	0.42401	0.42253	0.42247	0.42097	0.42099	0.42049	0.41952	0.41994	0.41931	0.41806	0.41708	0.41644	0.41621	0.41576	0.41649	0.41478	0.41440	0.41434	0.41465	0.41437	0.41330	0.41292	0.41241	0.41180	0.41196	0.41154	0.41112	0.41061	0.41055	0.40913	0.41001	0.40940	0.40955	0.40899	0.40898	0.40805	0.40860	0.40772	0.40781	0.40742	0.40760	0.40649	0.40724	0.40670	0.40552	0.40596	0.40592	0.40557	0.40509	0.40492	0.40535	0.40491	0.40465	0.40444	0.40353	0.40389	0.40392	0.40346	0.40358	0.40320
532.00	0.48899	0.48582	0.48247	0.47946	0.47629	0.47386	0.47119	0.46824	0.46638	0.46303	0.46044	0.45875	0.45623	0.45405	0.45227	0.44943	0.44885	0.44716	0.44492	0.44393	0.44210	0.44091	0.43996	0.43831	0.43693	0.43649	0.43461	0.43331	0.43268	0.43139	0.43037	0.42891	0.42846	0.42772	0.42689	0.42543	0.42522	0.42418	0.42343	0.42297	0.42143	0.42153	0.42016	0.42005	0.41947	0.41839	0.41772	0.41795	0.41665	0.41632	0.41589	0.41585	0.41506	0.41520	0.41474	0.41355	0.41388	0.41298	0.41257	0.41257	0.41159	0.41200	0.41066	0.41074	0.41021	0.41044	0.40951	0.40956	0.41014	0.40854	0.40844	0.40819	0.40828	0.40790	0.40777	0.40797	0.40728	0.40679	0.40719	0.40691	0.40632	0.40631	0.40611	0.40544	0.40550	0.40552	0.40444	0.40453	0.40399	0.40446	0.40420	0.40343	0.40378	0.40414	0.40326	0.40324	0.40335	0.40298	0.40262	0.40278
533.00	0.49135	0.48823	0.48517	0.48248	0.47960	0.47709	0.47333	0.47132	0.46926	0.46543	0.46307	0.46151	0.45938	0.45706	0.45478	0.45284	0.45108	0.44985	0.44813	0.44682	0.44356	0.44401	0.44110	0.44056	0.43908	0.43792	0.43707	0.43565	0.43477	0.43416	0.43216	0.43178	0.43079	0.43056	0.42850	0.42818	0.42675	0.42660	0.42546	0.42482	0.42433	0.42331	0.42306	0.42258	0.42200	0.42139	0.42068	0.41969	0.42001	0.41901	0.41855	0.41797	0.41738	0.41719	0.41676	0.41701	0.41565	0.41495	0.41468	0.41491	0.41471	0.41380	0.41428	0.41358	0.41385	0.41256	0.41267	0.41153	0.41192	0.41194	0.41166	0.41094	0.41149	0.41051	0.41059	0.41110	0.41005	0.40980	0.40946	0.41011	0.40991	0.40959	0.40865	0.40822	0.40872	0.40831	0.40767	0.40746	0.40787	0.40712	0.40764	0.40692	0.40746	0.40746	0.40677	0.40676	0.40611	0.40675	0.40657	0.40606
534.00	0.49747	0.49510	0.49162	0.48885	0.48687	0.48382	0.48194	0.47798	0.47650	0.47252	0.47053	0.46790	0.46589	0.46349	0.46203	0.45991	0.45842	0.45596	0.45484	0.45352	0.45074	0.45018	0.44855	0.44718	0.44496	0.44446	0.44392	0.44201	0.44128	0.44030	0.43941	0.43867	0.43712	0.43689	0.43581	0.43479	0.43419	0.43273	0.43298	0.43227	0.43119	0.43062	0.43019	0.42937	0.42864	0.42780	0.42758	0.42706	0.42682	0.42646	0.42581	0.42543	0.42506	0.42493	0.42390	0.42317	0.42274	0.42323	0.42344	0.42205	0.42194	0.42087	0.42091	0.42112	0.42065	0.42010	0.41981	0.41988	0.41937	0.41943	0.41923	0.41936	0.41864	0.41802	0.41759	0.41839	0.41751	0.41769	0.41804	0.41693	0.41729	0.41673	0.41669	0.41709	0.41633	0.41652	0.41652	0.41584	0.41558	0.41625	0.41551	0.41574	0.41622	0.41499	0.41560	0.41501	0.41463	0.41488	0.41514	0.41515
535.00	0.50714	0.50533	0.50141	0.49812	0.49587	0.49311	0.48970	0.48730	0.48486	0.48265	0.48017	0.47689	0.47508	0.47380	0.47135	0.46960	0.46840	0.46646	0.46535	0.46325	0.46116	0.46005	0.45782	0.45714	0.45544	0.45462	0.45295	0.45182	0.45099	0.44928	0.44933	0.44777	0.44814	0.44659	0.44605	0.44457	0.44366	0.44398	0.44288	0.44278	0.44149	0.44078	0.44051	0.44023	0.43837	0.43821	0.43765	0.43816	0.43713	0.43731	0.43705	0.43576	0.43520	0.43521	0.43449	0.43448	0.43307	0.43403	0.43302	0.43184	0.43247	0.43231	0.43224	0.43208	0.43111	0.43118	0.43059	0.43044	0.43108	0.43067	0.43001	0.43073	0.42955	0.42981	0.42965	0.42879	0.42904	0.42886	0.42865	0.42845	0.42766	0.42853	0.42732	0.42757	0.42835	0.42803	0.42730	0.42685	0.42682	0.42763	0.42708	0.42680	0.42813	0.42731	0.42577	0.42681	0.42608	0.42588	0.42641	0.42634
536.00	0.51769	0.51473	0.51146	0.50890	0.50550	0.50279	0.50104	0.49833	0.49571	0.49329	0.49089	0.48806	0.48599	0.48413	0.48271	0.47997	0.47921	0.47740	0.47537	0.47458	0.47231	0.47087	0.46927	0.46912	0.46716	0.46571	0.46507	0.46331	0.46240	0.46151	0.46112	0.45987	0.45951	0.45819	0.45764	0.45681	0.45553	0.45516	0.45391	0.45392	0.45270	0.45253	0.45181	0.45115	0.45123	0.45121	0.44964	0.44920	0.44924	0.44895	0.44832	0.44708	0.44653	0.44716	0.44640	0.44655	0.44621	0.44576	0.44490	0.44607	0.44488	0.44349	0.44342	0.44411	0.44285	0.44370	0.44266	0.44303	0.44281	0.44221	0.44184	0.44187	0.44180	0.44147	0.44093	0.44138	0.44095	0.44090	0.44134	0.43978	0.43944	0.43981	0.44004	0.43983	0.44051	0.43913	0.43963	0.43972	0.43995	0.43932	0.43899	0.43902	0.43890	0.43990	0.43974	0.43864	0.43891	0.43847	0.43820	0.43839
537.00	0.52663	0.52497	0.52202	0.51916	0.51588	0.51312	0.50998	0.50802	0.50541	0.50375	0.50157	0.49816	0.49634	0.49427	0.49220	0.49091	0.48907	0.48776	0.48612	0.48438	0.48220	0.48222	0.48033	0.47886	0.47778	0.47652	0.47587	0.47434	0.47372	0.47268	0.47224	0.47109	0.46971	0.46968	0.46810	0.46715	0.46660	0.46626	0.46581	0.46508	0.46396	0.46407	0.46292	0.46209	0.46208	0.46128	0.46096	0.45992	0.46006	0.45925	0.45911	0.45955	0.45906	0.45799	0.45806	0.45727	0.45700	0.45673	0.45711	0.45577	0.45592	0.45545	0.45544	0.45460	0.45473	0.45471	0.45460	0.45403	0.45447	0.45380	0.45270	0.45372	0.45297	0.45283	0.45334	0.45200	0.45273	0.45216	0.45258	0.45191	0.45137	0.45117	0.45146	0.45142	0.45183	0.45144	0.45050	0.45090	0.45089	0.44957	0.45056	0.45067	0.45040	0.45101	0.44977	0.45005	0.44998	0.45000	0.45022	0.44985
538.00	0.53552	0.53297	0.53023	0.52707	0.52459	0.52140	0.51886	0.51682	0.51408	0.51240	0.50995	0.50643	0.50620	0.50379	0.50149	0.50004	0.49864	0.49597	0.49538	0.49363	0.49160	0.49097	0.48938	0.48792	0.48722	0.48635	0.48500	0.48384	0.48307	0.48211	0.48101	0.48039	0.47983	0.47880	0.47809	0.47742	0.47619	0.47554	0.47502	0.47422	0.47435	0.47349	0.47230	0.47251	0.47125	0.47166	0.47091	0.47046	0.46934	0.46955	0.46901	0.46853	0.46805	0.46784	0.46733	0.46688	0.46621	0.46627	0.46579	0.46572	0.46481	0.46592	0.46511	0.46466	0.46433	0.46431	0.46363	0.46315	0.46343	0.46338	0.46281	0.46292	0.46249	0.46283	0.46220	0.46164	0.46176	0.46187	0.46152	0.46133	0.46121	0.46142	0.46019	0.46062	0.46123	0.46051	0.46065	0.45984	0.46041	0.45962	0.46030	0.45960	0.45984	0.45950	0.45964	0.45945	0.45910	0.45900	0.45942	0.45869
539.00	0.54101	0.53970	0.53598	0.53305	0.53018	0.52700	0.52399	0.52235	0.52048	0.51773	0.51538	0.51263	0.51111	0.50920	0.50797	0.50554	0.50471	0.50241	0.50150	0.49957	0.49820	0.49712	0.49509	0.49427	0.49375	0.49253	0.49088	0.49062	0.48934	0.48864	0.48719	0.48627	0.48599	0.48483	0.48441	0.48392	0.48274	0.48249	0.48123	0.48125	0.48036	0.48038	0.47931	0.47855	0.47824	0.47744	0.47760	0.47705	0.47653	0.47613	0.47576	0.47498	0.47457	0.47432	0.47418	0.47350	0.47240	0.47325	0.47282	0.47286	0.47172	0.47122	0.47114	0.47082	0.47067	0.47054	0.47006	0.46985	0.46971	0.47004	0.46967	0.46917	0.46793	0.46911	0.46862	0.46857	0.46806	0.46805	0.46738	0.46795	0.46689	0.46775	0.46724	0.46681	0.46643	0.46640	0.46574	0.46651	0.46573	0.46629	0.46582	0.46568	0.46592	0.46598	0.46543	0.46561	0.46522	0.46494	0.46544	0.46439
540.00	0.54388	0.54221	0.53844	0.53505	0.53184	0.52981	0.52730	0.52486	0.52194	0.52037	0.51810	0.51626	0.51382	0.51180	0.51036	0.50853	0.50726	0.50489	0.50398	0.50262	0.50058	0.50044	0.49871	0.49809	0.49646	0.49545	0.49437	0.49376	0.49259	0.49149	0.49086	0.49008	0.48901	0.48873	0.48814	0.48636	0.48657	0.48531	0.48453	0.48430	0.48413	0.48304	0.48186	0.48119	0.48131	0.48092	0.47947	0.47935	0.47939	0.47917	0.47854	0.47839	0.47786	0.47744	0.47691	0.47623	0.47600	0.47556	0.47505	0.47463	0.47451	0.47438	0.47448	0.47345	0.47430	0.47309	0.47237	0.47316	0.47272	0.47152	0.47182	0.47184	0.47142	0.47193	0.47094	0.47115	0.47099	0.47033	0.47066	0.46971	0.47012	0.46940	0.46985	0.46896	0.46852	0.46893	0.46903	0.46863	0.46851	0.46817	0.46860	0.46777	0.46838	0.46766	0.46688	0.46754	0.46776	0.46739	0.46726	0.46729
541.00	0.54325	0.54110	0.53780	0.53452	0.53175	0.53007	0.52655	0.52411	0.52221	0.51916	0.51681	0.51496	0.51337	0.51134	0.50978	0.50751	0.50616	0.50473	0.50372	0.50240	0.50074	0.49936	0.49843	0.49741	0.49672	0.49493	0.49374	0.49223	0.49178	0.49111	0.48976	0.48985	0.48820	0.48770	0.48737	0.48636	0.48542	0.48493	0.48413	0.48327	0.48335	0.48263	0.48141	0.48175	0.48051	0.48063	0.48009	0.47952	0.47925	0.47826	0.47784	0.47757	0.47668	0.47657	0.47621	0.47540	0.47560	0.47576	0.47466	0.47485	0.47406	0.47373	0.47311	0.47302	0.47292	0.47307	0.47248	0.47170	0.47184	0.47170	0.47133	0.47058	0.47024	0.47056	0.46992	0.47025	0.46973	0.46940	0.46904	0.46940	0.46909	0.46826	0.46840	0.46769	0.46725	0.46761	0.46732	0.46754	0.46745	0.46682	0.46756	0.46722	0.46630	0.46612	0.46614	0.46598	0.46655	0.46630	0.46591	0.46520
542.00	0.54092	0.53841	0.53515	0.53233	0.52860	0.52520	0.52243	0.52132	0.51827	0.51592	0.51394	0.51159	0.50974	0.50778	0.50661	0.50476	0.50316	0.50167	0.49976	0.49892	0.49736	0.49609	0.49448	0.49365	0.49256	0.49143	0.48981	0.48918	0.48779	0.48804	0.48717	0.48523	0.48468	0.48421	0.48316	0.48268	0.48258	0.48168	0.48116	0.47921	0.47951	0.47843	0.47821	0.47719	0.47694	0.47638	0.47618	0.47557	0.47540	0.47400	0.47376	0.47312	0.47301	0.47299	0.47285	0.47168	0.47161	0.47120	0.47099	0.47009	0.46996	0.46981	0.46915	0.46865	0.46870	0.46852	0.46834	0.46807	0.46750	0.46745	0.46688	0.46682	0.46704	0.46665	0.46624	0.46606	0.46566	0.46509	0.46477	0.46423	0.46465	0.46481	0.46410	0.46354	0.46381	0.46365	0.46354	0.46266	0.46275	0.46336	0.46247	0.46222	0.46212	0.46253	0.46128	0.46159	0.46076	0.46152	0.46149	0.46110
543.00	0.53566	0.53292	0.52936	0.52654	0.52323	0.52050	0.51715	0.51493	0.51310	0.51078	0.50761	0.50608	0.50429	0.50228	0.50074	0.49915	0.49691	0.49580	0.49353	0.49239	0.49166	0.48996	0.48949	0.48823	0.48652	0.48544	0.48412	0.48440	0.48278	0.48177	0.48040	0.48035	0.47868	0.47830	0.47756	0.47655	0.47555	0.47566	0.47486	0.47385	0.47355	0.47323	0.47193	0.47146	0.47098	0.47084	0.46968	0.46924	0.46841	0.46845	0.46751	0.46815	0.46722	0.46640	0.46642	0.46577	0.46429	0.46464	0.46474	0.46415	0.46307	0.46349	0.46322	0.46304	0.46288	0.46193	0.46262	0.46166	0.46135	0.46063	0.46025	0.46021	0.46022	0.46053	0.46002	0.45909	0.45880	0.45895	0.45842	0.45814	0.45743	0.45798	0.45713	0.45678	0.45654	0.45691	0.45625	0.45605	0.45614	0.45581	0.45561	0.45555	0.45541	0.45492	0.45503	0.45503	0.45463	0.45407	0.45428	0.45376
544.00	0.52821	0.52534	0.52226	0.51847	0.51555	0.51305	0.51024	0.50724	0.50541	0.50266	0.49987	0.49800	0.49615	0.49389	0.49236	0.49086	0.48914	0.48754	0.48570	0.48550	0.48331	0.48243	0.48005	0.47961	0.47828	0.47743	0.47591	0.47532	0.47447	0.47345	0.47254	0.47125	0.47115	0.46900	0.46964	0.46821	0.46732	0.46655	0.46644	0.46540	0.46497	0.46395	0.46407	0.46244	0.46260	0.46245	0.46115	0.46030	0.46041	0.46031	0.45917	0.45890	0.45876	0.45806	0.45773	0.45684	0.45617	0.45617	0.45549	0.45507	0.45511	0.45518	0.45467	0.45399	0.45313	0.45315	0.45310	0.45311	0.45193	0.45196	0.45146	0.45173	0.45097	0.45077	0.45061	0.45009	0.44980	0.44980	0.44978	0.44858	0.44880	0.44892	0.44890	0.44844	0.44770	0.44753	0.44772	0.44703	0.44734	0.44656	0.44716	0.44640	0.44643	0.44588	0.44523	0.44587	0.44549	0.44458	0.44479	0.44420
545.00	0.51999	0.51731	0.51344	0.51034	0.50689	0.50403	0.50169	0.49830	0.49614	0.49317	0.49225	0.48944	0.48705	0.48569	0.48317	0.48156	0.47945	0.47793	0.47703	0.47553	0.47387	0.47242	0.47127	0.47024	0.46880	0.46808	0.46680	0.46586	0.46498	0.46361	0.46220	0.46221	0.46078	0.46035	0.45963	0.45818	0.45801	0.45697	0.45676	0.45568	0.45555	0.45433	0.45358	0.45306	0.45298	0.45262	0.45099	0.45142	0.45096	0.44968	0.44899	0.44883	0.44880	0.44786	0.44740	0.44685	0.44636	0.44717	0.44549	0.44510	0.44529	0.44530	0.44491	0.44445	0.44364	0.44331	0.44270	0.44260	0.44164	0.44249	0.44174	0.44104	0.44103	0.44036	0.44065	0.43967	0.44066	0.43958	0.43932	0.43919	0.43916	0.43851	0.43854	0.43745	0.43759	0.43760	0.43751	0.43656	0.43669	0.43663	0.43711	0.43630	0.43608	0.43477	0.43535	0.43514	0.43520	0.43489	0.43463	0.43421
546.00	0.51168	0.50857	0.50527	0.50201	0.49869	0.49583	0.49291	0.48979	0.48724	0.48517	0.48289	0.48023	0.47779	0.47595	0.47461	0.47201	0.47166	0.46934	0.46737	0.46634	0.46462	0.46436	0.46181	0.46094	0.46064	0.45810	0.45678	0.45628	0.45479	0.45451	0.45293	0.45239	0.45175	0.45089	0.45032	0.44937	0.44843	0.44744	0.44738	0.44620	0.44565	0.44547	0.44401	0.44383	0.44327	0.44263	0.44180	0.44092	0.44082	0.44043	0.43933	0.43945	0.43874	0.43851	0.43741	0.43760	0.43664	0.43657	0.43601	0.43572	0.43549	0.43522	0.43407	0.43341	0.43346	0.43370	0.43309	0.43213	0.43243	0.43141	0.43132	0.43114	0.43174	0.43131	0.43067	0.43000	0.43056	0.43019	0.42973	0.42980	0.42872	0.42938	0.42850	0.42843	0.42737	0.42808	0.42735	0.42700	0.42711	0.42670	0.42649	0.42612	0.42604	0.42612	0.42514	0.42522	0.42487	0.42503	0.42387	0.42467
547.00	0.50347	0.50026	0.49767	0.49424	0.49022	0.48701	0.48440	0.48201	0.47925	0.47703	0.47474	0.47152	0.46951	0.46733	0.46557	0.46330	0.46204	0.46083	0.45890	0.45754	0.45607	0.45497	0.45328	0.45160	0.45032	0.44919	0.44869	0.44720	0.44553	0.44503	0.44416	0.44366	0.44209	0.44170	0.44061	0.43994	0.43870	0.43768	0.43739	0.43610	0.43559	0.43474	0.43489	0.43426	0.43356	0.43269	0.43243	0.43158	0.43150	0.43048	0.42936	0.42930	0.42930	0.42830	0.42857	0.42772	0.42705	0.42694	0.42655	0.42636	0.42533	0.42558	0.42573	0.42435	0.42399	0.42424	0.42348	0.42280	0.42292	0.42255	0.42175	0.42267	0.42095	0.42152	0.42082	0.42063	0.42024	0.42047	0.41968	0.41969	0.41927	0.41933	0.41859	0.41861	0.41801	0.41833	0.41781	0.41702	0.41734	0.41712	0.41707	0.41681	0.41687	0.41641	0.41557	0.41559	0.41571	0.41511	0.41447	0.41537
548.00	0.49874	0.49530	0.49227	0.48863	0.48548	0.48151	0.47816	0.47485	0.47294	0.47101	0.46764	0.46664	0.46316	0.46164	0.45872	0.45767	0.45522	0.45389	0.45251	0.45056	0.44880	0.44794	0.44626	0.44522	0.44346	0.44278	0.44134	0.44040	0.43893	0.43776	0.43649	0.43590	0.43539	0.43419	0.43321	0.43268	0.43178	0.43074	0.42985	0.42955	0.42822	0.42770	0.42713	0.42681	0.42594	0.42523	0.42494	0.42345	0.42450	0.42248	0.42257	0.42195	0.42113	0.42178	0.42109	0.42031	0.42005	0.41994	0.41908	0.41856	0.41865	0.41838	0.41724	0.41734	0.41745	0.41691	0.41702	0.41604	0.41586	0.41497	0.41549	0.41509	0.41405	0.41368	0.41343	0.41366	0.41296	0.41254	0.41199	0.41253	0.41158	0.41162	0.41235	0.41159	0.41171	0.41113	0.41114	0.41045	0.41055	0.41077	0.41105	0.41013	0.41046	0.40999	0.40828	0.40905	0.40853	0.40887	0.40805	0.40809
549.00	0.49636	0.49334	0.48955	0.48691	0.48241	0.47943	0.47670	0.47311	0.47073	0.46785	0.46592	0.46359	0.46121	0.45815	0.45589	0.45493	0.45284	0.45105	0.44945	0.44795	0.44568	0.44505	0.44392	0.44110	0.43987	0.43899	0.43785	0.43708	0.43566	0.43441	0.43363	0.43288	0.43178	0.43103	0.42992	0.42934	0.42820	0.42802	0.42669	0.42555	0.42442	0.42464	0.42364	0.42319	0.42273	0.42168	0.42184	0.42114	0.42024	0.41957	0.41960	0.41878	0.41806	0.41779	0.41724	0.41685	0.41621	0.41687	0.41581	0.41561	0.41493	0.41462	0.41428	0.41424	0.41366	0.41339	0.41322	0.41343	0.41242	0.41217	0.41180	0.41162	0.41104	0.41186	0.41065	0.41073	0.41051	0.41024	0.40957	0.40984	0.40956	0.40911	0.40868	0.40886	0.40847	0.40811	0.40829	0.40781	0.40734	0.40679	0.40748	0.40728	0.40730	0.40701	0.40624	0.40656	0.40649	0.40601	0.40588	0.40600
550.00	0.49767	0.49420	0.49048	0.48772	0.48383	0.48035	0.47749	0.47443	0.47145	0.46961	0.46603	0.46425	0.46150	0.45958	0.45754	0.45484	0.45271	0.45172	0.45033	0.44828	0.44597	0.44512	0.44377	0.44237	0.44108	0.43887	0.43849	0.43735	0.43599	0.43537	0.43399	0.43315	0.43266	0.43105	0.43078	0.42936	0.42825	0.42781	0.42693	0.42598	0.42574	0.42527	0.42385	0.42345	0.42318	0.42265	0.42248	0.42122	0.42059	0.42028	0.42031	0.41979	0.41938	0.41869	0.41850	0.41776	0.41734	0.41741	0.41704	0.41635	0.41574	0.41541	0.41614	0.41483	0.41411	0.41430	0.41413	0.41393	0.41357	0.41353	0.41304	0.41305	0.41278	0.41202	0.41146	0.41211	0.41175	0.41103	0.41139	0.41077	0.41073	0.41052	0.40989	0.41022	0.41005	0.41012	0.40996	0.40921	0.40974	0.40899	0.40958	0.40900	0.40872	0.40894	0.40819	0.40835	0.40809	0.40782	0.40824	0.40704
551.00	0.50281	0.49934	0.49535	0.49221	0.48916	0.48600	0.48296	0.47992	0.47694	0.47467	0.47215	0.47023	0.46701	0.46477	0.46332	0.46103	0.45900	0.45752	0.45481	0.45367	0.45165	0.45069	0.44904	0.44802	0.44555	0.44484	0.44428	0.44267	0.44123	0.44034	0.43931	0.43893	0.43691	0.43645	0.43551	0.43436	0.43469	0.43345	0.43277	0.43192	0.43094	0.43042	0.43029	0.42925	0.42913	0.42834	0.42735	0.42670	0.42670	0.42628	0.42590	0.42484	0.42589	0.42461	0.42402	0.42358	0.42404	0.42275	0.42251	0.42278	0.42201	0.42165	0.42193	0.42138	0.42043	0.42071	0.41993	0.42009	0.41922	0.41940	0.41901	0.41915	0.41902	0.41873	0.41850	0.41757	0.41778	0.41797	0.41804	0.41783	0.41747	0.41744	0.41679	0.41704	0.41645	0.41589	0.41613	0.41672	0.41595	0.41673	0.41577	0.41578	0.41593	0.41549	0.41547	0.41548	0.41497	0.41564	0.41519	0.41514
552.00	0.51169	0.50742	0.50521	0.50131	0.49827	0.49543	0.49213	0.48882	0.48682	0.48395	0.48119	0.47855	0.47618	0.47398	0.47213	0.47019	0.46745	0.46620	0.46492	0.46346	0.46139	0.45986	0.45913	0.45652	0.45540	0.45456	0.45278	0.45193	0.45097	0.45013	0.44938	0.44842	0.44785	0.44577	0.44581	0.44525	0.44393	0.44345	0.44207	0.44153	0.44115	0.44052	0.44020	0.43968	0.43904	0.43843	0.43778	0.43716	0.43708	0.43625	0.43567	0.43525	0.43588	0.43455	0.43380	0.43344	0.43385	0.43323	0.43318	0.43279	0.43288	0.43245	0.43152	0.43155	0.43101	0.43102	0.43058	0.43069	0.43044	0.42983	0.42967	0.42967	0.42982	0.42866	0.42923	0.42907	0.42904	0.42921	0.42850	0.42853	0.42882	0.42768	0.42828	0.42816	0.42831	0.42725	0.42817	0.42756	0.42788	0.42760	0.42757	0.42735	0.42781	0.42795	0.42717	0.42675	0.42694	0.42628	0.42641	0.42600
553.00	0.52200	0.51866	0.51533	0.51311	0.50939	0.50597	0.50374	0.49999	0.49802	0.49534	0.49277	0.49059	0.48912	0.48616	0.48407	0.48201	0.48027	0.47805	0.47629	0.47518	0.47301	0.47147	0.47053	0.46925	0.46816	0.46701	0.46513	0.46443	0.46378	0.46235	0.46166	0.46075	0.46024	0.45879	0.45801	0.45719	0.45629	0.45547	0.45478	0.45435	0.45406	0.45373	0.45265	0.45173	0.45134	0.45186	0.45046	0.45030	0.45010	0.44908	0.44883	0.44895	0.44848	0.44726	0.44757	0.44711	0.44661	0.44717	0.44599	0.44620	0.44566	0.44533	0.44485	0.44515	0.44477	0.44473	0.44556	0.44402	0.44425	0.44287	0.44362	0.44293	0.44351	0.44300	0.44301	0.44240	0.44222	0.44229	0.44257	0.44259	0.44198	0.44179	0.44157	0.44225	0.44155	0.44221	0.44173	0.44136	0.44106	0.44167	0.44110	0.44170	0.44126	0.44114	0.44074	0.44145	0.44096	0.44023	0.44085	0.44066
554.00	0.53525	0.53162	0.52827	0.52525	0.52320	0.51935	0.51651	0.51396	0.51178	0.50900	0.50561	0.50418	0.50238	0.50010	0.49804	0.49596	0.49456	0.49282	0.49066	0.48910	0.48780	0.48638	0.48421	0.48359	0.48253	0.48175	0.48017	0.47876	0.47791	0.47626	0.47656	0.47499	0.47499	0.47327	0.47227	0.47173	0.47168	0.47077	0.46988	0.46936	0.46905	0.46824	0.46832	0.46678	0.46611	0.46672	0.46604	0.46529	0.46463	0.46457	0.46410	0.46374	0.46330	0.46283	0.46302	0.46195	0.46142	0.46147	0.46207	0.46157	0.46057	0.46085	0.46103	0.46067	0.46039	0.46007	0.46012	0.45883	0.45878	0.45859	0.45923	0.45837	0.45872	0.45813	0.45869	0.45808	0.45815	0.45811	0.45790	0.45792	0.45799	0.45759	0.45809	0.45746	0.45696	0.45676	0.45731	0.45722	0.45675	0.45674	0.45657	0.45708	0.45719	0.45716	0.45690	0.45596	0.45576	0.45692	0.45714	0.45640
555.00	0.54681	0.54385	0.54033	0.53781	0.53464	0.53188	0.52905	0.52640	0.52366	0.52096	0.51887	0.51716	0.51458	0.51241	0.51107	0.50845	0.50656	0.50554	0.50398	0.50246	0.50128	0.49888	0.49830	0.49670	0.49557	0.49443	0.49370	0.49295	0.49089	0.49084	0.49004	0.48921	0.48799	0.48660	0.48645	0.48531	0.48571	0.48380	0.48337	0.48316	0.48270	0.48272	0.48210	0.48009	0.47978	0.48033	0.47906	0.47907	0.47898	0.47844	0.47821	0.47769	0.47690	0.47674	0.47635	0.47652	0.47589	0.47565	0.47548	0.47514	0.47481	0.47395	0.47439	0.47438	0.47445	0.47408	0.47307	0.47264	0.47244	0.47304	0.47254	0.47234	0.47251	0.47262	0.47137	0.47170	0.47250	0.47169	0.47129	0.47140	0.47152	0.47199	0.47151	0.47133	0.47147	0.47046	0.47074	0.47026	0.47077	0.47123	0.47012	0.47082	0.47019	0.47029	0.47059	0.47040	0.47037	0.47029	0.47036	0.47007
556.00	0.55753	0.55453	0.55151	0.54826	0.54461	0.54227	0.53938	0.53675	0.53365	0.53178	0.52914	0.52728	0.52463	0.52284	0.52075	0.51925	0.51784	0.51732	0.51491	0.51229	0.51122	0.51081	0.50946	0.50846	0.50734	0.50580	0.50471	0.50437	0.50347	0.50201	0.50073	0.50022	0.49949	0.49868	0.49785	0.49742	0.49667	0.49616	0.49555	0.49466	0.49379	0.49428	0.49264	0.49214	0.49197	0.49190	0.49106	0.49098	0.49065	0.48982	0.48962	0.48945	0.48906	0.48821	0.48780	0.48758	0.48747	0.48714	0.48788	0.48666	0.48617	0.48579	0.48601	0.48542	0.48486	0.48510	0.48537	0.48451	0.48506	0.48441	0.48429	0.48410	0.48401	0.48376	0.48396	0.48317	0.48362	0.48325	0.48262	0.48314	0.48285	0.48206	0.48264	0.48232	0.48260	0.48204	0.48152	0.48187	0.48191	0.48191	0.48106	0.48151	0.48180	0.48051	0.48103	0.48143	0.48141	0.48063	0.48133	0.48098
557.00	0.56426	0.56154	0.55816	0.55503	0.55232	0.54961	0.54576	0.54330	0.54167	0.53848	0.53644	0.53371	0.53219	0.53023	0.52895	0.52699	0.52485	0.52333	0.52182	0.52027	0.51894	0.51778	0.51644	0.51539	0.51474	0.51310	0.51210	0.51155	0.51076	0.50967	0.50808	0.50778	0.50730	0.50582	0.50538	0.50429	0.50423	0.50332	0.50193	0.50212	0.50180	0.50174	0.50044	0.50039	0.49960	0.49904	0.49855	0.49833	0.49844	0.49732	0.49677	0.49673	0.49560	0.49571	0.49580	0.49547	0.49510	0.49510	0.49411	0.49425	0.49359	0.49317	0.49328	0.49279	0.49279	0.49187	0.49262	0.49209	0.49229	0.49157	0.49106	0.49125	0.49098	0.49080	0.49045	0.49043	0.49079	0.49028	0.48989	0.49019	0.48955	0.49007	0.48938	0.48866	0.48891	0.48867	0.48866	0.48867	0.48941	0.48825	0.48900	0.48819	0.48809	0.48812	0.48793	0.48829	0.48766	0.48816	0.48787	0.48709
558.00	0.56832	0.56541	0.56211	0.55751	0.55484	0.55231	0.54990	0.54722	0.54422	0.54190	0.53990	0.53854	0.53572	0.53360	0.53277	0.53040	0.52913	0.52725	0.52556	0.52361	0.52288	0.52175	0.52051	0.51916	0.51812	0.51773	0.51635	0.51520	0.51410	0.51298	0.51222	0.51140	0.51088	0.50946	0.50882	0.50898	0.50787	0.50706	0.50634	0.50607	0.50559	0.50460	0.50460	0.50427	0.50352	0.50313	0.50268	0.50179	0.50181	0.50048	0.50054	0.50041	0.50000	0.49957	0.49884	0.49901	0.49868	0.49751	0.49814	0.49767	0.49679	0.49700	0.49718	0.49653	0.49616	0.49622	0.49630	0.49501	0.49466	0.49503	0.49497	0.49526	0.49421	0.49333	0.49371	0.49382	0.49288	0.49357	0.49308	0.49236	0.49242	0.49309	0.49226	0.49254	0.49249	0.49179	0.49168	0.49159	0.49132	0.49141	0.49123	0.49057	0.49082	0.49041	0.49029	0.49104	0.49087	0.49005	0.49025	0.48987
559.00	0.56776	0.56497	0.56164	0.55712	0.55522	0.55190	0.54982	0.54609	0.54401	0.54150	0.53917	0.53697	0.53478	0.53261	0.53113	0.52936	0.52848	0.52568	0.52463	0.52315	0.52249	0.52116	0.51965	0.51857	0.51655	0.51616	0.51492	0.51305	0.51399	0.51344	0.51133	0.51079	0.51000	0.50990	0.50829	0.50762	0.50659	0.50576	0.50558	0.50542	0.50511	0.50394	0.50347	0.50357	0.50253	0.50246	0.50112	0.50103	0.50095	0.49941	0.49956	0.49945	0.49900	0.49802	0.49779	0.49737	0.49698	0.49669	0.49655	0.49676	0.49588	0.49561	0.49575	0.49399	0.49481	0.49424	0.49378	0.49360	0.49406	0.49314	0.49268	0.49267	0.49259	0.49227	0.49241	0.49233	0.49164	0.49078	0.49147	0.49146	0.49099	0.49067	0.49085	0.48976	0.49059	0.49049	0.48979	0.48972	0.48927	0.48969	0.48917	0.48951	0.48911	0.48857	0.48877	0.48819	0.48799	0.48859	0.48757	0.48707
560.00	0.56440	0.56200	0.55783	0.55397	0.55111	0.54860	0.54522	0.54293	0.53988	0.53719	0.53549	0.53371	0.53100	0.52883	0.52763	0.52582	0.52414	0.52337	0.52158	0.51964	0.51813	0.51708	0.51604	0.51433	0.51278	0.51362	0.51175	0.51085	0.50887	0.50864	0.50750	0.50716	0.50590	0.50585	0.50468	0.50281	0.50311	0.50284	0.50154	0.50095	0.49985	0.50010	0.49926	0.49879	0.49881	0.49799	0.49758	0.49751	0.49634	0.49610	0.49488	0.49588	0.49453	0.49456	0.49416	0.49333	0.49322	0.49223	0.49243	0.49205	0.49142	0.49174	0.49062	0.49083	0.49032	0.49002	0.48896	0.48934	0.48934	0.48949	0.48876	0.48817	0.48807	0.48763	0.48690	0.48767	0.48651	0.48643	0.48686	0.48691	0.48608	0.48621	0.48546	0.48574	0.48571	0.48546	0.48486	0.48537	0.48427	0.48424	0.48465	0.48386	0.48360	0.48363	0.48329	0.48372	0.48350	0.48372	0.48351	0.48311
561.00	0.55886	0.55629	0.55150	0.54928	0.54577	0.54271	0.53868	0.53663	0.53402	0.53139	0.52919	0.52673	0.52456	0.52271	0.52134	0.51910	0.51834	0.51678	0.51516	0.51310	0.51246	0.51014	0.50993	0.50863	0.50756	0.50612	0.50420	0.50390	0.50338	0.50216	0.50114	0.50037	0.49914	0.49845	0.49836	0.49749	0.49682	0.49582	0.49579	0.49474	0.49377	0.49318	0.49189	0.49199	0.49160	0.49091	0.49003	0.49064	0.48998	0.48951	0.48821	0.48804	0.48859	0.48664	0.48705	0.48598	0.48622	0.48558	0.48574	0.48430	0.48501	0.48468	0.48343	0.48367	0.48346	0.48240	0.48208	0.48211	0.48220	0.48204	0.48202	0.48131	0.48137	0.48040	0.48054	0.48015	0.48020	0.47948	0.47922	0.47895	0.47941	0.47873	0.47785	0.47798	0.47793	0.47683	0.47753	0.47717	0.47723	0.47662	0.47680	0.47606	0.47646	0.47608	0.47609	0.47550	0.47555	0.47628	0.47539	0.47474
562.00	0.55057	0.54871	0.54455	0.54111	0.53797	0.53349	0.53083	0.52828	0.52566	0.52368	0.52067	0.51867	0.51672	0.51504	0.51297	0.51112	0.50933	0.50744	0.50627	0.50512	0.50327	0.50236	0.50107	0.49977	0.49842	0.49696	0.49586	0.49518	0.49414	0.49313	0.49207	0.49163	0.49020	0.48951	0.48861	0.48826	0.48772	0.48612	0.48566	0.48605	0.48461	0.48419	0.48452	0.48353	0.48229	0.48176	0.48144	0.48130	0.48011	0.48049	0.47920	0.47835	0.47794	0.47749	0.47771	0.47730	0.47651	0.47646	0.47551	0.47542	0.47548	0.47445	0.47399	0.47406	0.47366	0.47339	0.47362	0.47305	0.47296	0.47219	0.47227	0.47169	0.47125	0.47082	0.47092	0.47027	0.47002	0.47034	0.46983	0.46941	0.46912	0.46896	0.46832	0.46778	0.46787	0.46795	0.46807	0.46752	0.46681	0.46722	0.46659	0.46668	0.46679	0.46623	0.46583	0.46564	0.46524	0.46597	0.46497	0.46483
563.00	0.54121	0.53882	0.53543	0.53143	0.52762	0.52484	0.52197	0.51874	0.51582	0.51198	0.51081	0.50881	0.50654	0.50403	0.50247	0.50024	0.49948	0.49724	0.49623	0.49409	0.49313	0.49147	0.49011	0.48917	0.48899	0.48704	0.48539	0.48575	0.48374	0.48265	0.48136	0.48166	0.48008	0.47980	0.47863	0.47832	0.47723	0.47640	0.47566	0.47487	0.47386	0.47333	0.47360	0.47294	0.47196	0.47103	0.47089	0.47029	0.46958	0.46998	0.46837	0.46814	0.46731	0.46726	0.46699	0.46622	0.46575	0.46538	0.46486	0.46462	0.46424	0.46401	0.46310	0.46272	0.46359	0.46294	0.46250	0.46194	0.46143	0.46156	0.46103	0.46096	0.46036	0.46057	0.45982	0.45959	0.45901	0.45882	0.45835	0.45819	0.45809	0.45753	0.45698	0.45659	0.45687	0.45652	0.45662	0.45616	0.45606	0.45588	0.45519	0.45444	0.45487	0.45393	0.45422	0.45472	0.45375	0.45378	0.45353	0.45320
564.00	0.53248	0.52939	0.52623	0.52148	0.51839	0.51476	0.51231	0.50863	0.50594	0.50367	0.50089	0.49876	0.49633	0.49417	0.49330	0.49116	0.48868	0.48753	0.48588	0.48495	0.48287	0.48158	0.48042	0.47853	0.47728	0.47626	0.47478	0.47409	0.47287	0.47199	0.47144	0.47110	0.46953	0.46868	0.46827	0.46681	0.46592	0.46483	0.46501	0.46354	0.46325	0.46277	0.46185	0.46154	0.46012	0.46042	0.45985	0.45912	0.45771	0.45800	0.45729	0.45691	0.45645	0.45593	0.45512	0.45496	0.45507	0.45394	0.45354	0.45399	0.45229	0.45328	0.45198	0.45214	0.45104	0.45101	0.45098	0.45080	0.44983	0.45022	0.44903	0.44963	0.44873	0.44873	0.44819	0.44823	0.44823	0.44766	0.44769	0.44671	0.44648	0.44637	0.44620	0.44630	0.44581	0.44518	0.44456	0.44479	0.44516	0.44370	0.44415	0.44433	0.44374	0.44383	0.44342	0.44250	0.44201	0.44209	0.44279	0.44154
565.00	0.52408	0.52088	0.51659	0.51308	0.50910	0.50622	0.50355	0.49973	0.49723	0.49427	0.49171	0.48937	0.48664	0.48537	0.48321	0.48104	0.47868	0.47785	0.47722	0.47494	0.47325	0.47257	0.47043	0.46944	0.46806	0.46644	0.46565	0.46408	0.46240	0.46261	0.46126	0.46096	0.45896	0.45892	0.45741	0.45623	0.45681	0.45502	0.45471	0.45310	0.45228	0.45261	0.45176	0.45091	0.44994	0.44982	0.44922	0.44900	0.44736	0.44785	0.44703	0.44656	0.44567	0.44595	0.44504	0.44456	0.44426	0.44426	0.44323	0.44287	0.44266	0.44155	0.44194	0.44181	0.44163	0.44068	0.44028	0.43968	0.43941	0.43988	0.43902	0.43887	0.43856	0.43820	0.43762	0.43775	0.43736	0.43682	0.43655	0.43696	0.43613	0.43633	0.43597	0.43517	0.43550	0.43474	0.43406	0.43433	0.43514	0.43462	0.43340	0.43385	0.43368	0.43343	0.43287	0.43265	0.43228	0.43196	0.43262	0.43243
566.00	0.51565	0.51256	0.50863	0.50487	0.50121	0.49757	0.49519	0.49188	0.48906	0.48601	0.48275	0.48035	0.47789	0.47650	0.47365	0.47295	0.47046	0.46833	0.46730	0.46571	0.46329	0.46192	0.46111	0.45934	0.45785	0.45790	0.45614	0.45531	0.45345	0.45288	0.45113	0.45060	0.44981	0.44861	0.44769	0.44689	0.44533	0.44576	0.44445	0.44378	0.44338	0.44256	0.44272	0.44152	0.44012	0.43959	0.43984	0.43837	0.43837	0.43731	0.43731	0.43648	0.43629	0.43617	0.43525	0.43547	0.43400	0.43463	0.43333	0.43332	0.43259	0.43272	0.43174	0.43136	0.43070	0.43122	0.43065	0.43014	0.43004	0.42934	0.42892	0.42821	0.42807	0.42876	0.42788	0.42772	0.42717	0.42649	0.42674	0.42693	0.42619	0.42592	0.42598	0.42493	0.42504	0.42550	0.42490	0.42492	0.42475	0.42399	0.42461	0.42447	0.42377	0.42344	0.42225	0.42246	0.42297	0.42249	0.42200	0.42320
567.00	0.51096	0.50786	0.50360	0.49949	0.49667	0.49248	0.48908	0.48584	0.48334	0.48055	0.47804	0.47538	0.47293	0.47083	0.46839	0.46625	0.46436	0.46270	0.46158	0.45962	0.45818	0.45547	0.45504	0.45355	0.45266	0.45153	0.44989	0.44834	0.44719	0.44624	0.44467	0.44395	0.44323	0.44211	0.44081	0.44093	0.44037	0.43854	0.43812	0.43729	0.43679	0.43581	0.43515	0.43475	0.43419	0.43328	0.43282	0.43279	0.43144	0.43097	0.43070	0.43035	0.42965	0.42908	0.42894	0.42806	0.42786	0.42768	0.42743	0.42693	0.42651	0.42596	0.42524	0.42580	0.42481	0.42401	0.42414	0.42381	0.42307	0.42253	0.42315	0.42263	0.42273	0.42180	0.42152	0.42125	0.42163	0.42135	0.42071	0.42067	0.42059	0.41957	0.41936	0.41939	0.41893	0.41954	0.41897	0.41847	0.41898	0.41814	0.41809	0.41825	0.41818	0.41785	0.41723	0.41618	0.41666	0.41689	0.41682	0.41605
568.00	0.50824	0.50509	0.50122	0.49736	0.49425	0.48951	0.48710	0.48322	0.48016	0.47753	0.47552	0.47266	0.47057	0.46801	0.46503	0.46317	0.46156	0.45973	0.45751	0.45622	0.45426	0.45275	0.45152	0.44946	0.44892	0.44725	0.44591	0.44445	0.44431	0.44258	0.44138	0.44024	0.43947	0.43868	0.43773	0.43687	0.43604	0.43525	0.43472	0.43372	0.43306	0.43251	0.43210	0.43144	0.43084	0.43032	0.42925	0.42864	0.42807	0.42743	0.42736	0.42655	0.42610	0.42557	0.42543	0.42486	0.42435	0.42377	0.42390	0.42329	0.42290	0.42261	0.42224	0.42168	0.42210	0.42101	0.42101	0.42119	0.42037	0.42065	0.41943	0.41985	0.41911	0.41909	0.41890	0.41857	0.41831	0.41781	0.41763	0.41781	0.41778	0.41667	0.41723	0.41663	0.41712	0.41621	0.41619	0.41621	0.41603	0.41602	0.41534	0.41525	0.41524	0.41469	0.41493	0.41414	0.41412	0.41438	0.41394	0.41403
569.00	0.50940	0.50653	0.50269	0.49847	0.49551	0.49245	0.48940	0.48563	0.48287	0.48047	0.47741	0.47422	0.47261	0.46941	0.46704	0.46567	0.46370	0.46130	0.45960	0.45808	0.45602	0.45434	0.45333	0.45162	0.45091	0.44920	0.44775	0.44624	0.44583	0.44480	0.44378	0.44224	0.44113	0.44082	0.44021	0.43951	0.43825	0.43635	0.43636	0.43552	0.43387	0.43421	0.43410	0.43363	0.43218	0.43103	0.43168	0.43077	0.43094	0.42998	0.42937	0.42847	0.42849	0.42794	0.42691	0.42750	0.42667	0.42659	0.42600	0.42488	0.42583	0.42539	0.42478	0.42473	0.42446	0.42429	0.42364	0.42324	0.42284	0.42265	0.42276	0.42187	0.42211	0.42230	0.42174	0.42156	0.42127	0.42123	0.42058	0.42035	0.42061	0.42067	0.42067	0.42008	0.41948	0.42017	0.42043	0.42003	0.41916	0.41954	0.41930	0.41995	0.41889	0.41893	0.41822	0.41862	0.41846	0.41825	0.41852	0.41751
570.00	0.51600	0.51237	0.50878	0.50507	0.50148	0.49793	0.49492	0.49156	0.48874	0.48655	0.48347	0.48100	0.47878	0.47642	0.47459	0.47211	0.47038	0.46840	0.46603	0.46393	0.46278	0.46057	0.45957	0.45708	0.45672	0.45505	0.45400	0.45297	0.45244	0.45066	0.45000	0.44847	0.44835	0.44641	0.44660	0.44491	0.44454	0.44396	0.44321	0.44250	0.44143	0.44144	0.44097	0.43997	0.43957	0.43904	0.43846	0.43823	0.43770	0.43743	0.43678	0.43682	0.43524	0.43531	0.43506	0.43444	0.43404	0.43429	0.43335	0.43358	0.43344	0.43240	0.43251	0.43259	0.43144	0.43197	0.43114	0.43122	0.43119	0.43064	0.43083	0.43037	0.42995	0.43012	0.43025	0.43042	0.42929	0.42939	0.42889	0.42919	0.42917	0.42895	0.42890	0.42836	0.42891	0.42863	0.42813	0.42822	0.42785	0.42846	0.42818	0.42783	0.42787	0.42820	0.42715	0.42717	0.42680	0.42723	0.42740	0.42714
571.00	0.52601	0.52309	0.51917	0.51560	0.51179	0.50941	0.50593	0.50279	0.50077	0.49723	0.49494	0.49232	0.48967	0.48823	0.48615	0.48348	0.48224	0.47988	0.47769	0.47646	0.47435	0.47315	0.47172	0.47020	0.46929	0.46741	0.46640	0.46524	0.46423	0.46295	0.46170	0.46132	0.46036	0.45990	0.45867	0.45789	0.45717	0.45675	0.45594	0.45529	0.45477	0.45461	0.45371	0.45292	0.45243	0.45200	0.45173	0.45149	0.45073	0.44994	0.44954	0.44933	0.44883	0.44837	0.44811	0.44775	0.44754	0.44750	0.44722	0.44703	0.44668	0.44602	0.44600	0.44547	0.44491	0.44545	0.44499	0.44447	0.44456	0.44467	0.44491	0.44408	0.44410	0.44391	0.44398	0.44354	0.44348	0.44373	0.44311	0.44439	0.44330	0.44375	0.44320	0.44292	0.44239	0.44290	0.44215	0.44253	0.44304	0.44310	0.44235	0.44232	0.44262	0.44218	0.44222	0.44291	0.44145	0.44203	0.44282	0.44226
572.00	0.53930	0.53577	0.53228	0.52967	0.52696	0.52340	0.52008	0.51697	0.51420	0.51100	0.50952	0.50710	0.50472	0.50338	0.50115	0.49851	0.49599	0.49495	0.49372	0.49133	0.48982	0.48836	0.48683	0.48583	0.48473	0.48324	0.48240	0.48101	0.47982	0.47872	0.47788	0.47746	0.47639	0.47513	0.47542	0.47448	0.47390	0.47330	0.47145	0.47142	0.47069	0.47047	0.46972	0.46911	0.46872	0.46849	0.46810	0.46777	0.46711	0.46688	0.46576	0.46676	0.46570	0.46514	0.46515	0.46451	0.46417	0.46533	0.46360	0.46416	0.46371	0.46381	0.46295	0.46226	0.46239	0.46224	0.46259	0.46251	0.46266	0.46171	0.46158	0.46126	0.46182	0.46182	0.46113	0.46046	0.46091	0.46065	0.46165	0.46116	0.46090	0.46023	0.46042	0.46034	0.46012	0.46083	0.46093	0.46078	0.46012	0.46007	0.46032	0.46071	0.46009	0.46036	0.46029	0.46050	0.46038	0.45940	0.46014	0.46023
573.00	0.55372	0.54976	0.54684	0.54337	0.54067	0.53795	0.53514	0.53193	0.52944	0.52660	0.52526	0.52244	0.52013	0.51802	0.51663	0.51430	0.51242	0.51098	0.50922	0.50786	0.50544	0.50507	0.50315	0.50270	0.50100	0.50014	0.49878	0.49750	0.49692	0.49597	0.49499	0.49446	0.49430	0.49221	0.49168	0.49158	0.49039	0.49075	0.48942	0.48916	0.48773	0.48710	0.48698	0.48766	0.48602	0.48614	0.48540	0.48500	0.48505	0.48505	0.48401	0.48330	0.48333	0.48365	0.48278	0.48244	0.48297	0.48221	0.48139	0.48234	0.48122	0.48069	0.48097	0.48022	0.48044	0.48016	0.48015	0.48024	0.47984	0.47989	0.48002	0.47974	0.47939	0.47878	0.47908	0.47891	0.47948	0.47897	0.47913	0.47922	0.47948	0.47852	0.47887	0.47889	0.47906	0.47839	0.47862	0.47916	0.47876	0.47785	0.47874	0.47867	0.47819	0.47814	0.47930	0.47859	0.47805	0.47874	0.47839	0.47887
574.00	0.56801	0.56506	0.56140	0.55848	0.55540	0.55342	0.54994	0.54728	0.54452	0.54219	0.54048	0.53825	0.53587	0.53391	0.53223	0.53041	0.52875	0.52680	0.52537	0.52381	0.52215	0.52063	0.51987	0.51932	0.51806	0.51640	0.51585	0.51463	0.51341	0.51309	0.51143	0.51091	0.51074	0.50958	0.50898	0.50868	0.50777	0.50721	0.50685	0.50543	0.50579	0.50459	0.50453	0.50447	0.50398	0.50347	0.50278	0.50316	0.50267	0.50130	0.50155	0.50138	0.50106	0.50022	0.50037	0.49993	0.49974	0.49994	0.49914	0.49914	0.49855	0.49850	0.49803	0.49847	0.49785	0.49805	0.49745	0.49817	0.49773	0.49690	0.49766	0.49679	0.49701	0.49623	0.49685	0.49620	0.49693	0.49629	0.49630	0.49578	0.49625	0.49575	0.49661	0.49651	0.49614	0.49593	0.49631	0.49618	0.49591	0.49632	0.49559	0.49558	0.49546	0.49547	0.49586	0.49589	0.49618	0.49535	0.49559	0.49511
575.00	0.58102	0.57743	0.57429	0.57094	0.56716	0.56460	0.56222	0.55990	0.55719	0.55501	0.55320	0.55037	0.54900	0.54694	0.54477	0.54268	0.54157	0.53982	0.53896	0.53700	0.53538	0.53418	0.53339	0.53261	0.53141	0.53024	0.52888	0.52897	0.52810	0.52663	0.52586	0.52476	0.52419	0.52338	0.52281	0.52229	0.52194	0.52079	0.52052	0.51980	0.51983	0.51914	0.51929	0.51790	0.51746	0.51706	0.51701	0.51636	0.51619	0.51548	0.51528	0.51539	0.51535	0.51539	0.51436	0.51323	0.51357	0.51316	0.51349	0.51330	0.51250	0.51279	0.51199	0.51224	0.51183	0.51181	0.51148	0.51187	0.51163	0.51074	0.51138	0.51122	0.51131	0.51030	0.51080	0.51010	0.51048	0.50984	0.50986	0.51001	0.50942	0.50986	0.50934	0.50972	0.50935	0.51010	0.50958	0.50923	0.50955	0.50851	0.50956	0.50883	0.50890	0.50880	0.50913	0.50937	0.50899	0.50865	0.50964	0.50848
576.00	0.58929	0.58619	0.58353	0.58002	0.57670	0.57397	0.57135	0.56923	0.56720	0.56468	0.56203	0.55908	0.55772	0.55665	0.55461	0.55241	0.55146	0.54967	0.54806	0.54645	0.54577	0.54468	0.54357	0.54258	0.54159	0.54012	0.53988	0.53875	0.53737	0.53651	0.53579	0.53524	0.53467	0.53392	0.53331	0.53231	0.53084	0.53104	0.53021	0.53004	0.52962	0.52909	0.52891	0.52826	0.52813	0.52807	0.52691	0.52663	0.52642	0.52583	0.52574	0.52497	0.52489	0.52452	0.52471	0.52404	0.52370	0.52337	0.52366	0.52288	0.52284	0.52231	0.52253	0.52126	0.52181	0.52148	0.52143	0.52142	0.52045	0.52075	0.52010	0.52071	0.52095	0.52043	0.52037	0.51943	0.51948	0.51956	0.51960	0.51925	0.51945	0.51956	0.51870	0.51945	0.51923	0.51845	0.51872	0.51870	0.51780	0.51800	0.51805	0.51854	0.51814	0.51754	0.51793	0.51787	0.51753	0.51708	0.51801	0.51807
577.00	0.59469	0.59125	0.58784	0.58425	0.58119	0.57901	0.57601	0.57391	0.57126	0.56900	0.56665	0.56473	0.56148	0.56105	0.55858	0.55761	0.55593	0.55459	0.55320	0.55263	0.55051	0.54953	0.54831	0.54694	0.54614	0.54563	0.54391	0.54303	0.54282	0.54221	0.54077	0.54055	0.53952	0.53912	0.53795	0.53726	0.53765	0.53677	0.53579	0.53524	0.53405	0.53453	0.53397	0.53314	0.53307	0.53206	0.53232	0.53148	0.53138	0.53137	0.53028	0.52981	0.52966	0.52963	0.52929	0.52886	0.52843	0.52792	0.52794	0.52800	0.52700	0.52771	0.52677	0.52696	0.52658	0.52660	0.52632	0.52569	0.52652	0.52559	0.52483	0.52532	0.52506	0.52475	0.52421	0.52473	0.52411	0.52392	0.52415	0.52387	0.52303	0.52357	0.52305	0.52331	0.52317	0.52271	0.52271	0.52291	0.52200	0.52214	0.52242	0.52233	0.52128	0.52199	0.52201	0.52196	0.52176	0.52153	0.52147	0.52159
578.00	0.59454	0.59209	0.58891	0.58512	0.58225	0.57894	0.57749	0.57402	0.57195	0.56881	0.56709	0.56486	0.56381	0.56148	0.56008	0.55840	0.55732	0.55531	0.55414	0.55241	0.55142	0.55053	0.54928	0.54763	0.54720	0.54624	0.54494	0.54441	0.54311	0.54206	0.54192	0.54140	0.54019	0.53963	0.53910	0.53803	0.53812	0.53701	0.53602	0.53567	0.53589	0.53469	0.53392	0.53406	0.53354	0.53309	0.53276	0.53255	0.53213	0.53139	0.53137	0.53072	0.53017	0.52989	0.52950	0.52894	0.52878	0.52932	0.52862	0.52802	0.52764	0.52695	0.52737	0.52687	0.52709	0.52636	0.52619	0.52596	0.52570	0.52509	0.52497	0.52501	0.52530	0.52489	0.52406	0.52399	0.52441	0.52374	0.52401	0.52347	0.52313	0.52328	0.52268	0.52317	0.52286	0.52215	0.52253	0.52246	0.52260	0.52162	0.52171	0.52179	0.52136	0.52125	0.52046	0.52074	0.52136	0.52130	0.52097	0.52107
579.00	0.59200	0.58904	0.58657	0.58258	0.57925	0.57652	0.57335	0.57148	0.56879	0.56585	0.56409	0.56189	0.56056	0.55814	0.55723	0.55447	0.55357	0.55197	0.55000	0.55011	0.54871	0.54668	0.54629	0.54499	0.54406	0.54314	0.54199	0.54140	0.54029	0.53936	0.53834	0.53784	0.53682	0.53660	0.53630	0.53512	0.53482	0.53371	0.53320	0.53256	0.53158	0.53182	0.53137	0.53075	0.53040	0.52965	0.52892	0.52883	0.52838	0.52762	0.52735	0.52735	0.52688	0.52662	0.52574	0.52587	0.52528	0.52518	0.52457	0.52418	0.52370	0.52400	0.52332	0.52324	0.52295	0.52212	0.52256	0.52177	0.52210	0.52168	0.52184	0.52082	0.52038	0.52046	0.52052	0.51974	0.51934	0.52011	0.51912	0.51937	0.51940	0.51896	0.51864	0.51876	0.51851	0.51853	0.51799	0.51840	0.51781	0.51701	0.51777	0.51730	0.51749	0.51697	0.51676	0.51683	0.51665	0.51732	0.51629	0.51601
580.00	0.58499	0.58214	0.57886	0.57585	0.57267	0.56894	0.56714	0.56423	0.56139	0.55914	0.55698	0.55529	0.55332	0.55137	0.54974	0.54795	0.54693	0.54465	0.54439	0.54274	0.54083	0.54008	0.53913	0.53779	0.53683	0.53607	0.53538	0.53451	0.53301	0.53263	0.53135	0.53143	0.53028	0.52915	0.52914	0.52802	0.52725	0.52610	0.52614	0.52536	0.52506	0.52463	0.52352	0.52364	0.52268	0.52268	0.52223	0.52095	0.52098	0.52001	0.51939	0.51977	0.51931	0.51934	0.51874	0.51882	0.51774	0.51801	0.51681	0.51635	0.51666	0.51551	0.51591	0.51575	0.51643	0.51463	0.51505	0.51416	0.51398	0.51368	0.51308	0.51317	0.51360	0.51257	0.51254	0.51229	0.51195	0.51183	0.51182	0.51190	0.51124	0.51123	0.51055	0.50997	0.51127	0.51023	0.50940	0.50927	0.50911	0.50937	0.50979	0.50921	0.50892	0.50872	0.50842	0.50836	0.50817	0.50884	0.50781	0.50760
581.00	0.57686	0.57414	0.57050	0.56650	0.56367	0.56001	0.55701	0.55489	0.55206	0.54954	0.54849	0.54601	0.54378	0.54220	0.54112	0.53951	0.53723	0.53556	0.53450	0.53395	0.53238	0.53096	0.52987	0.52834	0.52706	0.52682	0.52560	0.52432	0.52370	0.52287	0.52235	0.52161	0.52057	0.51948	0.51885	0.51871	0.51750	0.51655	0.51619	0.51604	0.51504	0.51510	0.51353	0.51342	0.51300	0.51283	0.51222	0.51184	0.51146	0.51046	0.50980	0.50938	0.50950	0.50893	0.50849	0.50855	0.50846	0.50748	0.50775	0.50684	0.50677	0.50681	0.50587	0.50548	0.50535	0.50543	0.50476	0.50500	0.50428	0.50403	0.50362	0.50336	0.50285	0.50318	0.50248	0.50221	0.50211	0.50178	0.50138	0.50160	0.50121	0.50100	0.50118	0.49976	0.49976	0.50057	0.50034	0.49980	0.49924	0.49881	0.49906	0.49853	0.49902	0.49883	0.49804	0.49857	0.49809	0.49770	0.49732	0.49739
582.00	0.56554	0.56266	0.55927	0.55637	0.55291	0.54895	0.54656	0.54456	0.54177	0.53881	0.53734	0.53498	0.53288	0.53116	0.52967	0.52795	0.52622	0.52504	0.52361	0.52260	0.52124	0.51931	0.51848	0.51714	0.51650	0.51527	0.51486	0.51297	0.51269	0.51187	0.51089	0.50993	0.50956	0.50872	0.50787	0.50740	0.50636	0.50629	0.50510	0.50423	0.50405	0.50287	0.50234	0.50229	0.50163	0.50136	0.50067	0.50019	0.49988	0.49984	0.49861	0.49869	0.49772	0.49790	0.49702	0.49613	0.49679	0.49614	0.49581	0.49635	0.49533	0.49476	0.49432	0.49421	0.49346	0.49339	0.49371	0.49308	0.49243	0.49297	0.49160	0.49196	0.49131	0.49105	0.49091	0.49049	0.49074	0.49111	0.48948	0.48929	0.48886	0.48865	0.48912	0.48858	0.48890	0.48875	0.48815	0.48807	0.48763	0.48673	0.48779	0.48689	0.48648	0.48682	0.48601	0.48559	0.48571	0.48577	0.48528	0.48487
583.00	0.55363	0.55124	0.54792	0.54450	0.54105	0.53704	0.53460	0.53223	0.52973	0.52655	0.52498	0.52240	0.52132	0.51904	0.51772	0.51515	0.51437	0.51295	0.51141	0.50961	0.50848	0.50733	0.50604	0.50526	0.50418	0.50412	0.50209	0.50118	0.50068	0.49895	0.49833	0.49735	0.49669	0.49661	0.49535	0.49428	0.49403	0.49332	0.49235	0.49207	0.49167	0.49039	0.49007	0.48959	0.48967	0.48806	0.48847	0.48742	0.48764	0.48695	0.48598	0.48539	0.48539	0.48507	0.48413	0.48460	0.48413	0.48349	0.48285	0.48200	0.48191	0.48190	0.48175	0.48093	0.48068	0.48035	0.48036	0.48023	0.47926	0.47904	0.47921	0.47911	0.47837	0.47819	0.47810	0.47730	0.47704	0.47736	0.47719	0.47655	0.47598	0.47652	0.47606	0.47570	0.47496	0.47495	0.47425	0.47454	0.47403	0.47416	0.47416	0.47354	0.47390	0.47458	0.47318	0.47274	0.47240	0.47215	0.47201	0.47183
584.00	0.54204	0.53943	0.53504	0.53144	0.52871	0.52508	0.52210	0.52013	0.51686	0.51446	0.51275	0.51009	0.50792	0.50667	0.50463	0.50284	0.50123	0.49970	0.49841	0.49738	0.49617	0.49456	0.49317	0.49184	0.49137	0.49097	0.48918	0.48848	0.48746	0.48653	0.48555	0.48396	0.48406	0.48327	0.48153	0.48150	0.48046	0.48027	0.47919	0.47908	0.47804	0.47796	0.47711	0.47659	0.47644	0.47548	0.47552	0.47437	0.47393	0.47370	0.47370	0.47300	0.47200	0.47237	0.47162	0.47133	0.47038	0.47024	0.47026	0.46935	0.46918	0.46908	0.46829	0.46858	0.46711	0.46683	0.46724	0.46659	0.46681	0.46696	0.46627	0.46518	0.46561	0.46495	0.46515	0.46475	0.46435	0.46360	0.46347	0.46336	0.46372	0.46243	0.46284	0.46297	0.46247	0.46190	0.46137	0.46261	0.46184	0.46111	0.46153	0.46047	0.46035	0.46072	0.45979	0.45928	0.45934	0.45923	0.45928	0.45946
585.00	0.52938	0.52689	0.52307	0.51954	0.51640	0.51323	0.51003	0.50695	0.50539	0.50243	0.49991	0.49776	0.49588	0.49418	0.49250	0.49010	0.48869	0.48777	0.48587	0.48516	0.48322	0.48243	0.48098	0.47993	0.47885	0.47788	0.47623	0.47568	0.47483	0.47404	0.47295	0.47190	0.47128	0.47097	0.46960	0.46844	0.46810	0.46845	0.46670	0.46681	0.46575	0.46500	0.46455	0.46366	0.46375	0.46356	0.46279	0.46191	0.46115	0.46111	0.46036	0.46018	0.45925	0.45895	0.45901	0.45895	0.45741	0.45773	0.45774	0.45710	0.45618	0.45636	0.45603	0.45527	0.45452	0.45470	0.45457	0.45413	0.45443	0.45423	0.45271	0.45323	0.45274	0.45273	0.45262	0.45173	0.45171	0.45128	0.45091	0.45081	0.45076	0.45025	0.45057	0.44989	0.44920	0.45005	0.44972	0.44967	0.44957	0.44793	0.44795	0.44828	0.44855	0.44768	0.44772	0.44696	0.44693	0.44713	0.44662	0.44671
586.00	0.51856	0.51610	0.51169	0.50871	0.50551	0.50232	0.49883	0.49686	0.49369	0.49115	0.48875	0.48663	0.48470	0.48260	0.48124	0.47997	0.47818	0.47620	0.47438	0.47339	0.47217	0.47140	0.46964	0.46878	0.46727	0.46652	0.46578	0.46408	0.46305	0.46233	0.46099	0.46051	0.45976	0.45867	0.45767	0.45710	0.45703	0.45684	0.45525	0.45465	0.45461	0.45365	0.45280	0.45308	0.45241	0.45145	0.45091	0.45074	0.45020	0.44971	0.44926	0.44862	0.44812	0.44744	0.44707	0.44767	0.44692	0.44601	0.44578	0.44601	0.44497	0.44477	0.44471	0.44393	0.44397	0.44367	0.44378	0.44341	0.44303	0.44274	0.44188	0.44215	0.44172	0.44114	0.44076	0.44049	0.44057	0.44103	0.44060	0.44046	0.43952	0.43978	0.43878	0.43863	0.43864	0.43869	0.43902	0.43835	0.43798	0.43832	0.43780	0.43778	0.43736	0.43751	0.43644	0.43641	0.43634	0.43664	0.43617	0.43629
587.00	0.51097	0.50770	0.50486	0.50078	0.49756	0.49528	0.49237	0.48940	0.48650	0.48364	0.48167	0.48055	0.47750	0.47630	0.47359	0.47275	0.47136	0.46917	0.46741	0.46653	0.46522	0.46340	0.46280	0.46123	0.45958	0.45885	0.45777	0.45691	0.45644	0.45502	0.45475	0.45385	0.45217	0.45159	0.45124	0.45038	0.44966	0.44878	0.44785	0.44788	0.44779	0.44691	0.44538	0.44550	0.44543	0.44485	0.44419	0.44339	0.44354	0.44248	0.44242	0.44182	0.44121	0.44107	0.44059	0.44024	0.43977	0.44003	0.43927	0.43902	0.43839	0.43830	0.43794	0.43780	0.43758	0.43738	0.43669	0.43681	0.43628	0.43619	0.43564	0.43588	0.43534	0.43499	0.43451	0.43453	0.43451	0.43424	0.43370	0.43364	0.43381	0.43340	0.43290	0.43273	0.43322	0.43307	0.43254	0.43256	0.43169	0.43220	0.43181	0.43151	0.43202	0.43099	0.43024	0.43097	0.42990	0.43007	0.43012	0.43065
588.00	0.50493	0.50193	0.49961	0.49624	0.49295	0.49004	0.48678	0.48483	0.48145	0.47950	0.47671	0.47488	0.47255	0.47101	0.46943	0.46812	0.46598	0.46522	0.46322	0.46131	0.46025	0.45923	0.45797	0.45682	0.45535	0.45443	0.45385	0.45225	0.45124	0.45038	0.44945	0.44896	0.44840	0.44801	0.44619	0.44577	0.44594	0.44425	0.44385	0.44344	0.44299	0.44205	0.44154	0.44161	0.44183	0.44074	0.43975	0.43945	0.43916	0.43829	0.43846	0.43825	0.43790	0.43724	0.43672	0.43752	0.43629	0.43552	0.43539	0.43503	0.43441	0.43444	0.43444	0.43440	0.43407	0.43270	0.43362	0.43342	0.43311	0.43297	0.43299	0.43253	0.43234	0.43180	0.43217	0.43168	0.43131	0.43123	0.43119	0.43130	0.43063	0.43119	0.43076	0.43051	0.43027	0.43048	0.42986	0.42988	0.43015	0.42934	0.42924	0.42976	0.42966	0.42963	0.42844	0.42827	0.42826	0.42840	0.42868	0.42833
589.00	0.50460	0.50247	0.49840	0.49619	0.49227	0.48926	0.48753	0.48439	0.48192	0.47983	0.47717	0.47473	0.47349	0.47192	0.46968	0.46811	0.46660	0.46465	0.46305	0.46261	0.46132	0.45969	0.45944	0.45744	0.45679	0.45499	0.45453	0.45394	0.45216	0.45194	0.45071	0.44993	0.44932	0.44925	0.44803	0.44760	0.44690	0.44652	0.44596	0.44491	0.44479	0.44385	0.44360	0.44352	0.44319	0.44252	0.44177	0.44164	0.44119	0.43994	0.44074	0.44049	0.43969	0.43925	0.43917	0.43943	0.43846	0.43811	0.43806	0.43786	0.43711	0.43742	0.43685	0.43726	0.43703	0.43674	0.43542	0.43661	0.43611	0.43548	0.43501	0.43468	0.43502	0.43488	0.43483	0.43505	0.43527	0.43478	0.43496	0.43471	0.43432	0.43409	0.43430	0.43429	0.43403	0.43413	0.43384	0.43404	0.43377	0.43398	0.43359	0.43393	0.43360	0.43313	0.43271	0.43255	0.43258	0.43258	0.43319	0.43296
590.00	0.50853	0.50613	0.50250	0.49996	0.49774	0.49522	0.49292	0.49059	0.48756	0.48577	0.48343	0.48165	0.47935	0.47788	0.47619	0.47401	0.47308	0.47193	0.47039	0.46881	0.46787	0.46758	0.46572	0.46471	0.46365	0.46223	0.46146	0.46069	0.46007	0.45926	0.45843	0.45747	0.45654	0.45654	0.45596	0.45565	0.45483	0.45389	0.45342	0.45305	0.45212	0.45169	0.45126	0.45097	0.45135	0.45067	0.44981	0.45020	0.44992	0.44872	0.44923	0.44828	0.44826	0.44771	0.44787	0.44753	0.44769	0.44706	0.44694	0.44709	0.44648	0.44679	0.44628	0.44632	0.44582	0.44558	0.44579	0.44608	0.44546	0.44547	0.44535	0.44528	0.44514	0.44513	0.44520	0.44460	0.44493	0.44448	0.44442	0.44410	0.44478	0.44458	0.44425	0.44446	0.44448	0.44381	0.44403	0.44466	0.44441	0.44375	0.44410	0.44389	0.44396	0.44384	0.44333	0.44394	0.44378	0.44373	0.44330	0.44350
591.00	0.51916	0.51665	0.51338	0.51154	0.50846	0.50692	0.50474	0.50157	0.49955	0.49772	0.49542	0.49408	0.49203	0.49045	0.48817	0.48705	0.48601	0.48415	0.48372	0.48158	0.48089	0.48007	0.47909	0.47752	0.47720	0.47621	0.47562	0.47421	0.47347	0.47329	0.47275	0.47155	0.47096	0.47074	0.47024	0.46967	0.46878	0.46850	0.46803	0.46747	0.46672	0.46752	0.46643	0.46702	0.46606	0.46621	0.46585	0.46555	0.46486	0.46394	0.46519	0.46380	0.46446	0.46334	0.46365	0.46337	0.46266	0.46296	0.46324	0.46252	0.46237	0.46185	0.46192	0.46244	0.46170	0.46239	0.46236	0.46229	0.46210	0.46219	0.46159	0.46169	0.46129	0.46186	0.46109	0.46134	0.46110	0.46191	0.46186	0.46143	0.46191	0.46160	0.46113	0.46148	0.46146	0.46161	0.46148	0.46112	0.46167	0.46180	0.46162	0.46203	0.46113	0.46155	0.46129	0.46139	0.46152	0.46130	0.46145	0.46134
592.00	0.53286	0.53047	0.52727	0.52565	0.52347	0.52151	0.51886	0.51690	0.51523	0.51439	0.51158	0.50991	0.50910	0.50709	0.50528	0.50444	0.50325	0.50241	0.50099	0.49989	0.49944	0.49793	0.49632	0.49634	0.49497	0.49408	0.49327	0.49290	0.49180	0.49090	0.49140	0.49074	0.48985	0.48911	0.48904	0.48831	0.48811	0.48753	0.48770	0.48632	0.48602	0.48600	0.48621	0.48632	0.48611	0.48539	0.48493	0.48443	0.48419	0.48376	0.48405	0.48367	0.48353	0.48353	0.48321	0.48341	0.48324	0.48313	0.48286	0.48225	0.48222	0.48252	0.48257	0.48261	0.48215	0.48273	0.48205	0.48187	0.48147	0.48214	0.48192	0.48148	0.48244	0.48180	0.48173	0.48226	0.48229	0.48200	0.48228	0.48171	0.48213	0.48208	0.48208	0.48164	0.48212	0.48279	0.48235	0.48159	0.48234	0.48216	0.48170	0.48234	0.48295	0.48268	0.48179	0.48344	0.48221	0.48221	0.48280	0.48362
593.00	0.54904	0.54593	0.54400	0.54201	0.54028	0.53806	0.53630	0.53445	0.53348	0.53200	0.53007	0.52892	0.52672	0.52575	0.52352	0.52251	0.52247	0.52078	0.52011	0.51861	0.51833	0.51746	0.51595	0.51560	0.51430	0.51440	0.51314	0.51258	0.51174	0.51102	0.51108	0.51026	0.51081	0.50926	0.50891	0.50895	0.50872	0.50771	0.50738	0.50750	0.50696	0.50700	0.50601	0.50595	0.50604	0.50604	0.50594	0.50594	0.50558	0.50465	0.50509	0.50453	0.50421	0.50471	0.50494	0.50433	0.50462	0.50428	0.50381	0.50440	0.50393	0.50398	0.50356	0.50335	0.50426	0.50391	0.50369	0.50302	0.50363	0.50366	0.50357	0.50362	0.50320	0.50356	0.50395	0.50322	0.50334	0.50451	0.50362	0.50384	0.50344	0.50331	0.50349	0.50340	0.50399	0.50393	0.50369	0.50356	0.50382	0.50413	0.50374	0.50391	0.50383	0.50434	0.50395	0.50468	0.50463	0.50352	0.50402	0.50431
594.00	0.56524	0.56293	0.56116	0.55873	0.55695	0.55559	0.55394	0.55263	0.55030	0.54940	0.54820	0.54617	0.54482	0.54335	0.54224	0.54141	0.54093	0.54006	0.53864	0.53766	0.53703	0.53635	0.53570	0.53407	0.53404	0.53283	0.53276	0.53196	0.53169	0.53070	0.53091	0.53039	0.53001	0.52903	0.52920	0.52869	0.52845	0.52811	0.52795	0.52772	0.52725	0.52712	0.52605	0.52565	0.52607	0.52581	0.52624	0.52571	0.52559	0.52509	0.52491	0.52530	0.52492	0.52467	0.52548	0.52425	0.52387	0.52424	0.52416	0.52443	0.52466	0.52430	0.52396	0.52399	0.52379	0.52386	0.52364	0.52385	0.52375	0.52411	0.52378	0.52421	0.52404	0.52369	0.52410	0.52301	0.52340	0.52430	0.52401	0.52348	0.52390	0.52379	0.52338	0.52395	0.52386	0.52295	0.52430	0.52369	0.52337	0.52327	0.52409	0.52492	0.52507	0.52384	0.52490	0.52418	0.52405	0.52418	0.52440	0.52416
595.00	0.57996	0.57719	0.57578	0.57390	0.57186	0.57000	0.56948	0.56739	0.56612	0.56467	0.56349	0.56194	0.56036	0.55967	0.55844	0.55690	0.55699	0.55592	0.55438	0.55351	0.55310	0.55235	0.55144	0.55068	0.54996	0.55030	0.54909	0.54831	0.54818	0.54846	0.54661	0.54709	0.54624	0.54568	0.54539	0.54520	0.54536	0.54460	0.54488	0.54416	0.54376	0.54348	0.54336	0.54394	0.54308	0.54284	0.54246	0.54172	0.54218	0.54182	0.54207	0.54210	0.54131	0.54142	0.54135	0.54081	0.54138	0.54120	0.54114	0.54093	0.54036	0.54029	0.53987	0.53986	0.54003	0.54016	0.54002	0.54014	0.54045	0.54024	0.53973	0.54109	0.53950	0.54045	0.53996	0.53996	0.53998	0.53980	0.53971	0.54035	0.53958	0.53942	0.53890	0.53967	0.53966	0.53957	0.53947	0.53903	0.54055	0.54005	0.53973	0.53977	0.53932	0.53980	0.54002	0.53967	0.53998	0.53966	0.54024	0.54012
596.00	0.59101	0.58914	0.58680	0.58521	0.58416	0.58261	0.57991	0.57883	0.57720	0.57603	0.57463	0.57274	0.57193	0.57063	0.56975	0.56983	0.56817	0.56702	0.56710	0.56592	0.56414	0.56428	0.56372	0.56296	0.56239	0.56149	0.56135	0.56120	0.56015	0.56050	0.55916	0.55888	0.55826	0.55755	0.55803	0.55662	0.55655	0.55646	0.55617	0.55605	0.55537	0.55510	0.55541	0.55521	0.55447	0.55446	0.55451	0.55423	0.55298	0.55398	0.55342	0.55260	0.55266	0.55319	0.55269	0.55278	0.55285	0.55295	0.55226	0.55180	0.55242	0.55236	0.55231	0.55187	0.55162	0.55190	0.55248	0.55229	0.55134	0.55167	0.55140	0.55079	0.55177	0.55149	0.55148	0.55101	0.55095	0.55079	0.55090	0.55015	0.55074	0.55037	0.55056	0.55015	0.55079	0.55111	0.55029	0.54962	0.55099	0.55061	0.55167	0.55052	0.55129	0.55084	0.55069	0.55078	0.55060	0.55089	0.55067	0.55033
597.00	0.59793	0.59568	0.59395	0.59283	0.59080	0.58892	0.58685	0.58496	0.58361	0.58269	0.58131	0.57961	0.57886	0.57731	0.57742	0.57596	0.57533	0.57348	0.57334	0.57235	0.57204	0.57120	0.56990	0.56932	0.56884	0.56820	0.56796	0.56795	0.56720	0.56647	0.56592	0.56567	0.56544	0.56468	0.56514	0.56415	0.56336	0.56397	0.56355	0.56281	0.56209	0.56303	0.56177	0.56130	0.56109	0.56189	0.56128	0.56114	0.56031	0.56063	0.56027	0.55979	0.55961	0.55939	0.55947	0.55912	0.55919	0.55913	0.55858	0.55853	0.55879	0.55885	0.55786	0.55776	0.55903	0.55836	0.55765	0.55836	0.55756	0.55783	0.55718	0.55706	0.55774	0.55683	0.55691	0.55733	0.55651	0.55672	0.55673	0.55699	0.55705	0.55703	0.55738	0.55645	0.55645	0.55616	0.55601	0.55661	0.55677	0.55668	0.55567	0.55626	0.55599	0.55568	0.55516	0.55580	0.55542	0.55567	0.55592	0.55543
598.00	0.59999	0.59814	0.59612	0.59437	0.59258	0.59032	0.58995	0.58756	0.58577	0.58444	0.58205	0.58247	0.58124	0.58027	0.57872	0.57776	0.57642	0.57683	0.57482	0.57451	0.57338	0.57403	0.57278	0.57254	0.57136	0.57157	0.57030	0.57028	0.57040	0.56903	0.56812	0.56802	0.56744	0.56740	0.56668	0.56640	0.56608	0.56573	0.56473	0.56423	0.56442	0.56460	0.56439	0.56481	0.56348	0.56317	0.56323	0.56291	0.56271	0.56201	0.56259	0.56200	0.56190	0.56191	0.56140	0.56122	0.56126	0.56086	0.56071	0.55949	0.56059	0.55997	0.56061	0.55998	0.56009	0.55944	0.55935	0.55970	0.55980	0.55922	0.55907	0.55848	0.55877	0.55876	0.55834	0.55781	0.55758	0.55831	0.55771	0.55731	0.55811	0.55751	0.55781	0.55762	0.55725	0.55659	0.55668	0.55680	0.55674	0.55630	0.55678	0.55605	0.55646	0.55682	0.55648	0.55661	0.55563	0.55630	0.55660	0.55611
599.00	0.59911	0.59691	0.59454	0.59298	0.59133	0.58897	0.58736	0.58509	0.58439	0.58260	0.58183	0.58007	0.57933	0.57768	0.57667	0.57641	0.57502	0.57431	0.57369	0.57293	0.57176	0.57108	0.57066	0.57013	0.56993	0.56896	0.56900	0.56833	0.56816	0.56713	0.56648	0.56623	0.56561	0.56536	0.56462	0.56479	0.56378	0.56395	0.56341	0.56336	0.56258	0.56270	0.56192	0.56152	0.56105	0.56078	0.56117	0.56107	0.56011	0.56079	0.55991	0.55961	0.55866	0.55932	0.55868	0.55870	0.55872	0.55868	0.55852	0.55823	0.55740	0.55789	0.55753	0.55676	0.55785	0.55771	0.55681	0.55711	0.55662	0.55583	0.55645	0.55562	0.55594	0.55531	0.55570	0.55548	0.55617	0.55448	0.55499	0.55497	0.55462	0.55436	0.55447	0.55387	0.55438	0.55373	0.55426	0.55363	0.55397	0.55386	0.55380	0.55313	0.55309	0.55322	0.55303	0.55328	0.55327	0.55279	0.55308	0.55297
600.00	0.59289	0.59170	0.58899	0.58684	0.58452	0.58321	0.58151	0.57945	0.57738	0.57706	0.57569	0.57480	0.57281	0.57184	0.57052	0.57082	0.56955	0.56879	0.56717	0.56729	0.56666	0.56589	0.56514	0.56465	0.56435	0.56372	0.56231	0.56256	0.56145	0.56085	0.56098	0.56076	0.56002	0.55932	0.55880	0.55886	0.55855	0.55717	0.55744	0.55754	0.55657	0.55615	0.55611	0.55579	0.55602	0.55520	0.55425	0.55486	0.55403	0.55420	0.55345	0.55419	0.55374	0.55278	0.55297	0.55221	0.55239	0.55303	0.55171	0.55184	0.55168	0.55182	0.55081	0.54990	0.55008	0.55073	0.55059	0.55012	0.55074	0.54976	0.54935	0.54885	0.54904	0.54881	0.54860	0.54858	0.54864	0.54895	0.54815	0.54804	0.54867	0.54802	0.54711	0.54704	0.54699	0.54777	0.54684	0.54716	0.54729	0.54636	0.54686	0.54662	0.54603	0.54700	0.54635	0.54551	0.54560	0.54582	0.54561	0.54554
