,d2o 174 By Administrator Date Thursday. December 16 2021,
Time,12:45:43,
Wavenumbers [1/cm],Transmittance %,
7000.000,7.75905,
6999.000,7.71789,
6998.000,7.68191,
6997.000,7.64674,
6996.000,7.60927,
6995.000,7.57087,
6994.000,7.53489,
6993.000,7.50173,
6992.000,7.46733,
6991.000,7.42731,
6990.000,7.38319,
6989.000,7.34266,
6988.000,7.31138,
6987.000,7.2855,
6986.000,7.25536,
6985.000,7.21682,
6984.000,7.17511,
6983.000,7.13629,
6982.000,7.10005,
6981.000,7.06328,
6980.000,7.02585,
6979.000,6.98938,
6978.000,6.95372,
6977.000,6.91846,
6976.000,6.88546,
6975.000,6.85555,
6974.000,6.82535,
6973.000,6.79175,
6972.000,6.75697,
6971.000,6.72524,
6970.000,6.69549,
6969.000,6.66243,
6968.000,6.62469,
6967.000,6.58664,
6966.000,6.55238,
6965.000,6.52211,
6964.000,6.49415,
6963.000,6.46681,
6962.000,6.43786,
6961.000,6.40557,
6960.000,6.37101,
6959.000,6.33656,
6958.000,6.30221,
6957.000,6.26653,
6956.000,6.23075,
6955.000,6.19815,
6954.000,6.16861,
6953.000,6.13833,
6952.000,6.10623,
6951.000,6.07673,
6950.000,6.05395,
6949.000,6.03571,
6948.000,6.01537,
6947.000,5.9886,
6946.000,5.9564,
6945.000,5.92244,
6944.000,5.88915,
6943.000,5.85622,
6942.000,5.82242,
6941.000,5.78893,
6940.000,5.75971,
6939.000,5.73702,
6938.000,5.71683,
6937.000,5.69188,
6936.000,5.65961,
6935.000,5.62469,
6934.000,5.59327,
6933.000,5.56673,
6932.000,5.54213,
6931.000,5.51731,
6930.000,5.49316,
6929.000,5.47081,
6928.000,5.44862,
6927.000,5.42289,
6926.000,5.39179,
6925.000,5.35755,
6924.000,5.32407,
6923.000,5.29276,
6922.000,5.26227,
6921.000,5.23238,
6920.000,5.20506,
6919.000,5.18081,
6918.000,5.15681,
6917.000,5.13083,
6916.000,5.10484,
6915.000,5.08171,
6914.000,5.0596,
6913.000,5.03372,
6912.000,5.00339,
6911.000,4.97345,
6910.000,4.94859,
6909.000,4.92881,
6908.000,4.91079,
6907.000,4.89145,
6906.000,4.86934,
6905.000,4.84448,
6904.000,4.81794,
6903.000,4.79049,
6902.000,4.76195,
6901.000,4.73263,
6900.000,4.70492,
6899.000,4.68121,
6898.000,4.66066,
6897.000,4.63976,
6896.000,4.61621,
6895.000,4.59059,
6894.000,4.56476,
6893.000,4.54078,
6892.000,4.52064,
6891.000,4.50488,
6890.000,4.49139,
6889.000,4.47765,
6888.000,4.46366,
6887.000,4.45013,
6886.000,4.43485,
6885.000,4.41429,
6884.000,4.38851,
6883.000,4.36153,
6882.000,4.33618,
6881.000,4.31151,
6880.000,4.28641,
6879.000,4.263,
6878.000,4.24439,
6877.000,4.23089,
6876.000,4.21962,
6875.000,4.2066,
6874.000,4.18894,
6873.000,4.16692,
6872.000,4.14393,
6871.000,4.12295,
6870.000,4.10297,
6869.000,4.08141,
6868.000,4.0596,
6867.000,4.0424,
6866.000,4.03201,
6865.000,4.02533,
6864.000,4.01824,
6863.000,4.00937,
6862.000,3.99862,
6861.000,3.98497,
6860.000,3.9678,
6859.000,3.94776,
6858.000,3.92483,
6857.000,3.89852,
6856.000,3.87186,
6855.000,3.85151,
6854.000,3.84081,
6853.000,3.83441,
6852.000,3.82368,
6851.000,3.80631,
6850.000,3.7874,
6849.000,3.77183,
6848.000,3.75932,
6847.000,3.74704,
6846.000,3.7338,
6845.000,3.72036,
6844.000,3.70743,
6843.000,3.69483,
6842.000,3.682,
6841.000,3.66886,
6840.000,3.65642,
6839.000,3.6462,
6838.000,3.6391,
6837.000,3.63465,
6836.000,3.63126,
6835.000,3.62689,
6834.000,3.61984,
6833.000,3.6102,
6832.000,3.60062,
6831.000,3.59392,
6830.000,3.58935,
6829.000,3.58278,
6828.000,3.57104,
6827.000,3.55484,
6826.000,3.53735,
6825.000,3.52167,
6824.000,3.51058,
6823.000,3.50605,
6822.000,3.50679,
6821.000,3.50769,
6820.000,3.50381,
6819.000,3.49445,
6818.000,3.48189,
6817.000,3.46767,
6816.000,3.45251,
6815.000,3.4385,
6814.000,3.42855,
6813.000,3.42337,
6812.000,3.42108,
6811.000,3.42042,
6810.000,3.42232,
6809.000,3.4275,
6808.000,3.43438,
6807.000,3.44082,
6806.000,3.44645,
6805.000,3.45202,
6804.000,3.45698,
6803.000,3.45944,
6802.000,3.45843,
6801.000,3.4552,
6800.000,3.45175,
6799.000,3.44878,
6798.000,3.44598,
6797.000,3.44394,
6796.000,3.44453,
6795.000,3.44873,
6794.000,3.45498,
6793.000,3.46043,
6792.000,3.46352,
6791.000,3.46442,
6790.000,3.46347,
6789.000,3.46087,
6788.000,3.45819,
6787.000,3.45879,
6786.000,3.46512,
6785.000,3.47602,
6784.000,3.48767,
6783.000,3.49659,
6782.000,3.50115,
6781.000,3.50111,
6780.000,3.49735,
6779.000,3.49247,
6778.000,3.49032,
6777.000,3.49327,
6776.000,3.49994,
6775.000,3.50691,
6774.000,3.51305,
6773.000,3.52056,
6772.000,3.53092,
6771.000,3.54166,
6770.000,3.54931,
6769.000,3.55469,
6768.000,3.56248,
6767.000,3.57522,
6766.000,3.5908,
6765.000,3.60679,
6764.000,3.62403,
6763.000,3.64355,
6762.000,3.66244,
6761.000,3.67628,
6760.000,3.68447,
6759.000,3.68981,
6758.000,3.69406,
6757.000,3.69726,
6756.000,3.70089,
6755.000,3.70825,
6754.000,3.72097,
6753.000,3.73752,
6752.000,3.75559,
6751.000,3.77376,
6750.000,3.79082,
6749.000,3.80586,
6748.000,3.81985,
6747.000,3.83462,
6746.000,3.84988,
6745.000,3.86398,
6744.000,3.87785,
6743.000,3.89492,
6742.000,3.91643,
6741.000,3.93926,
6740.000,3.95996,
6739.000,3.97827,
6738.000,3.9954,
6737.000,4.01154,
6736.000,4.02715,
6735.000,4.04417,
6734.000,4.06323,
6733.000,4.08169,
6732.000,4.09783,
6731.000,4.11484,
6730.000,4.13708,
6729.000,4.16328,
6728.000,4.1874,
6727.000,4.20653,
6726.000,4.22427,
6725.000,4.24497,
6724.000,4.26755,
6723.000,4.28765,
6722.000,4.30436,
6721.000,4.32174,
6720.000,4.34378,
6719.000,4.37025,
6718.000,4.39817,
6717.000,4.42596,
6716.000,4.4545,
6715.000,4.48486,
6714.000,4.51658,
6713.000,4.54815,
6712.000,4.57792,
6711.000,4.60442,
6710.000,4.6269,
6709.000,4.64642,
6708.000,4.66571,
6707.000,4.68692,
6706.000,4.71028,
6705.000,4.73526,
6704.000,4.76216,
6703.000,4.79148,
6702.000,4.82251,
6701.000,4.85399,
6700.000,4.88569,
6699.000,4.91799,
6698.000,4.94993,
6697.000,4.98021,
6696.000,5.00846,
6695.000,5.0366,
6694.000,5.06641,
6693.000,5.09761,
6692.000,5.12954,
6691.000,5.16259,
6690.000,5.19764,
6689.000,5.23425,
6688.000,5.2705,
6687.000,5.30459,
6686.000,5.33621,
6685.000,5.36628,
6684.000,5.39572,
6683.000,5.42496,
6682.000,5.45456,
6681.000,5.4857,
6680.000,5.51915,
6679.000,5.55444,
6678.000,5.59076,
6677.000,5.62837,
6676.000,5.66745,
6675.000,5.70627,
6674.000,5.74259,
6673.000,5.777,
6672.000,5.81242,
6671.000,5.84916,
6670.000,5.88336,
6669.000,5.91256,
6668.000,5.94041,
6667.000,5.97279,
6666.000,6.0109,
6665.000,6.05163,
6664.000,6.09357,
6663.000,6.13847,
6662.000,6.18633,
6661.000,6.23311,
6660.000,6.27527,
6659.000,6.31426,
6658.000,6.35431,
6657.000,6.39728,
6656.000,6.44151,
6655.000,6.48548,
6654.000,6.53008,
6653.000,6.57664,
6652.000,6.62398,
6651.000,6.66902,
6650.000,6.71035,
6649.000,6.74991,
6648.000,6.79041,
6647.000,6.83212,
6646.000,6.87376,
6645.000,6.91587,
6644.000,6.96098,
6643.000,7.01013,
6642.000,7.06134,
6641.000,7.11193,
6640.000,7.1608,
6639.000,7.20773,
6638.000,7.25257,
6637.000,7.29624,
6636.000,7.3412,
6635.000,7.38948,
6634.000,7.4411,
6633.000,7.49482,
6632.000,7.54893,
6631.000,7.60114,
6630.000,7.64971,
6629.000,7.69552,
6628.000,7.74143,
6627.000,7.78882,
6626.000,7.83652,
6625.000,7.88379,
6624.000,7.93177,
6623.000,7.98126,
6622.000,8.03138,
6621.000,8.08199,
6620.000,8.13495,
6619.000,8.19135,
6618.000,8.2502,
6617.000,8.31095,
6616.000,8.37424,
6615.000,8.43828,
6614.000,8.49799,
6613.000,8.55028,
6612.000,8.59781,
6611.000,8.64504,
6610.000,8.69327,
6609.000,8.74225,
6608.000,8.79343,
6607.000,8.8481,
6606.000,8.90454,
6605.000,8.96057,
6604.000,9.01706,
6603.000,9.0754,
6602.000,9.13329,
6601.000,9.18725,
6600.000,9.23825,
6599.000,9.29112,
6598.000,9.3488,
6597.000,9.41008,
6596.000,9.47254,
6595.000,9.53474,
6594.000,9.59582,
6593.000,9.65551,
6592.000,9.71414,
6591.000,9.77106,
6590.000,9.82453,
6589.000,9.87517,
6588.000,9.92728,
6587.000,9.9839,
6586.000,10.0427,
6585.000,10.1002,
6584.000,10.1573,
6583.000,10.2178,
6582.000,10.2817,
6581.000,10.3452,
6580.000,10.4068,
6579.000,10.4684,
6578.000,10.5311,
6577.000,10.5932,
6576.000,10.6533,
6575.000,10.711,
6574.000,10.7659,
6573.000,10.8176,
6572.000,10.8685,
6571.000,10.9218,
6570.000,10.9785,
6569.000,11.0371,
6568.000,11.0971,
6567.000,11.159,
6566.000,11.2218,
6565.000,11.282,
6564.000,11.3374,
6563.000,11.3889,
6562.000,11.4391,
6561.000,11.4905,
6560.000,11.545,
6559.000,11.6023,
6558.000,11.6602,
6557.000,11.7155,
6556.000,11.7676,
6555.000,11.8174,
6554.000,11.8662,
6553.000,11.9143,
6552.000,11.9621,
6551.000,12.0097,
6550.000,12.057,
6549.000,12.1041,
6548.000,12.151,
6547.000,12.1955,
6546.000,12.2346,
6545.000,12.2686,
6544.000,12.3023,
6543.000,12.3398,
6542.000,12.3796,
6541.000,12.4182,
6540.000,12.4551,
6539.000,12.4931,
6538.000,12.5337,
6537.000,12.575,
6536.000,12.6134,
6535.000,12.6461,
6534.000,12.6732,
6533.000,12.6972,
6532.000,12.7208,
6531.000,12.7429,
6530.000,12.7608,
6529.000,12.7759,
6528.000,12.7937,
6527.000,12.8167,
6526.000,12.8395,
6525.000,12.8555,
6524.000,12.8653,
6523.000,12.8744,
6522.000,12.8861,
6521.000,12.8983,
6520.000,12.9086,
6519.000,12.9167,
6518.000,12.9234,
6517.000,12.9283,
6516.000,12.9297,
6515.000,12.9257,
6514.000,12.9163,
6513.000,12.9044,
6512.000,12.8937,
6511.000,12.8849,
6510.000,12.8761,
6509.000,12.867,
6508.000,12.86,
6507.000,12.856,
6506.000,12.8512,
6505.000,12.8415,
6504.000,12.8265,
6503.000,12.8076,
6502.000,12.7853,
6501.000,12.7605,
6500.000,12.736,
6499.000,12.7132,
6498.000,12.6899,
6497.000,12.6632,
6496.000,12.6337,
6495.000,12.6034,
6494.000,12.5722,
6493.000,12.539,
6492.000,12.5046,
6491.000,12.4706,
6490.000,12.437,
6489.000,12.4023,
6488.000,12.3668,
6487.000,12.3315,
6486.000,12.2964,
6485.000,12.2606,
6484.000,12.2245,
6483.000,12.1883,
6482.000,12.1499,
6481.000,12.1069,
6480.000,12.0589,
6479.000,12.0086,
6478.000,11.9588,
6477.000,11.9111,
6476.000,11.8661,
6475.000,11.8231,
6474.000,11.7799,
6473.000,11.7344,
6472.000,11.6869,
6471.000,11.6389,
6470.000,11.5915,
6469.000,11.5443,
6468.000,11.4972,
6467.000,11.4512,
6466.000,11.4077,
6465.000,11.3671,
6464.000,11.3266,
6463.000,11.2821,
6462.000,11.2321,
6461.000,11.1788,
6460.000,11.1249,
6459.000,11.0704,
6458.000,11.0147,
6457.000,10.9591,
6456.000,10.9055,
6455.000,10.8539,
6454.000,10.8032,
6453.000,10.7547,
6452.000,10.7096,
6451.000,10.6651,
6450.000,10.6174,
6449.000,10.567,
6448.000,10.5179,
6447.000,10.4709,
6446.000,10.4218,
6445.000,10.3686,
6444.000,10.3148,
6443.000,10.264,
6442.000,10.2159,
6441.000,10.1676,
6440.000,10.1185,
6439.000,10.0695,
6438.000,10.0216,
6437.000,9.97624,
6436.000,9.93367,
6435.000,9.89168,
6434.000,9.84704,
6433.000,9.79988,
6432.000,9.7534,
6431.000,9.70827,
6430.000,9.66112,
6429.000,9.60994,
6428.000,9.55762,
6427.000,9.50789,
6426.000,9.46075,
6425.000,9.41396,
6424.000,9.36691,
6423.000,9.32047,
6422.000,9.27515,
6421.000,9.23061,
6420.000,9.18557,
6419.000,9.13763,
6418.000,9.08556,
6417.000,9.03235,
6416.000,8.98306,
6415.000,8.9388,
6414.000,8.89637,
6413.000,8.85449,
6412.000,8.81582,
6411.000,8.78093,
6410.000,8.74499,
6409.000,8.70369,
6408.000,8.65872,
6407.000,8.61381,
6406.000,8.569,
6405.000,8.52294,
6404.000,8.47749,
6403.000,8.43514,
6402.000,8.39376,
6401.000,8.34915,
6400.000,8.30169,
6399.000,8.25566,
6398.000,8.21222,
6397.000,8.16827,
6396.000,8.12287,
6395.000,8.08028,
6394.000,8.04404,
6393.000,8.01139,
6392.000,7.97611,
6391.000,7.93529,
6390.000,7.891,
6389.000,7.84614,
6388.000,7.80133,
6387.000,7.75637,
6386.000,7.71286,
6385.000,7.67335,
6384.000,7.63781,
6383.000,7.60261,
6382.000,7.56393,
6381.000,7.52137,
6380.000,7.4773,
6379.000,7.43382,
6378.000,7.39213,
6377.000,7.35367,
6376.000,7.3188,
6375.000,7.28475,
6374.000,7.24751,
6373.000,7.20652,
6372.000,7.16473,
6371.000,7.1238,
6370.000,7.08236,
6369.000,7.03996,
6368.000,6.99918,
6367.000,6.96179,
6366.000,6.92573,
6365.000,6.88893,
6364.000,6.85334,
6363.000,6.82173,
6362.000,6.79207,
6361.000,6.75913,
6360.000,6.72118,
6359.000,6.68151,
6358.000,6.64295,
6357.000,6.60436,
6356.000,6.56393,
6355.000,6.52345,
6354.000,6.48653,
6353.000,6.45358,
6352.000,6.42073,
6351.000,6.38422,
6350.000,6.34472,
6349.000,6.30601,
6348.000,6.27018,
6347.000,6.23549,
6346.000,6.19963,
6345.000,6.16322,
6344.000,6.12834,
6343.000,6.09448,
6342.000,6.0585,
6341.000,6.01927,
6340.000,5.97986,
6339.000,5.94374,
6338.000,5.91052,
6337.000,5.87731,
6336.000,5.84297,
6335.000,5.80894,
6334.000,5.77627,
6333.000,5.74402,
6332.000,5.71109,
6331.000,5.67802,
6330.000,5.64596,
6329.000,5.61494,
6328.000,5.58399,
6327.000,5.55255,
6326.000,5.52086,
6325.000,5.4888,
6324.000,5.45535,
6323.000,5.41976,
6322.000,5.38287,
6321.000,5.34655,
6320.000,5.31195,
6319.000,5.27925,
6318.000,5.24892,
6317.000,5.22202,
6316.000,5.19816,
6315.000,5.17433,
6314.000,5.14736,
6313.000,5.11725,
6312.000,5.08673,
6311.000,5.0574,
6310.000,5.02776,
6309.000,4.99532,
6308.000,4.95968,
6307.000,4.9229,
6306.000,4.88748,
6305.000,4.85433,
6304.000,4.82282,
6303.000,4.79229,
6302.000,4.76343,
6301.000,4.7374,
6300.000,4.71354,
6299.000,4.68866,
6298.000,4.65992,
6297.000,4.62769,
6296.000,4.5947,
6295.000,4.56263,
6294.000,4.53133,
6293.000,4.50106,
6292.000,4.47372,
6291.000,4.45067,
6290.000,4.43009,
6289.000,4.40789,
6288.000,4.38141,
6287.000,4.35167,
6286.000,4.32201,
6285.000,4.29439,
6284.000,4.26772,
6283.000,4.23994,
6282.000,4.21113,
6281.000,4.18346,
6280.000,4.15809,
6279.000,4.13374,
6278.000,4.10883,
6277.000,4.08373,
6276.000,4.05954,
6275.000,4.03559,
6274.000,4.00986,
6273.000,3.98145,
6272.000,3.9517,
6271.000,3.9229,
6270.000,3.89667,
6269.000,3.87316,
6268.000,3.85095,
6267.000,3.82806,
6266.000,3.80394,
6265.000,3.77952,
6264.000,3.75521,
6263.000,3.73004,
6262.000,3.70385,
6261.000,3.6786,
6260.000,3.65586,
6259.000,3.6343,
6258.000,3.61186,
6257.000,3.58936,
6256.000,3.56944,
6255.000,3.55249,
6254.000,3.53642,
6253.000,3.51993,
6252.000,3.50334,
6251.000,3.48559,
6250.000,3.46374,
6249.000,3.43652,
6248.000,3.40628,
6247.000,3.37639,
6246.000,3.34866,
6245.000,3.32435,
6244.000,3.30499,
6243.000,3.29029,
6242.000,3.27691,
6241.000,3.26157,
6240.000,3.24422,
6239.000,3.2265,
6238.000,3.20856,
6237.000,3.1895,
6236.000,3.16999,
6235.000,3.15187,
6234.000,3.13524,
6233.000,3.11797,
6232.000,3.09867,
6231.000,3.07804,
6230.000,3.05701,
6229.000,3.03525,
6228.000,3.01287,
6227.000,2.99192,
6226.000,2.97431,
6225.000,2.95892,
6224.000,2.94275,
6223.000,2.92491,
6222.000,2.90789,
6221.000,2.89412,
6220.000,2.88242,
6219.000,2.86946,
6218.000,2.85384,
6217.000,2.83732,
6216.000,2.82209,
6215.000,2.80851,
6214.000,2.79609,
6213.000,2.78498,
6212.000,2.77544,
6211.000,2.76652,
6210.000,2.75661,
6209.000,2.74516,
6208.000,2.73275,
6207.000,2.72002,
6206.000,2.70708,
6205.000,2.69405,
6204.000,2.68092,
6203.000,2.66701,
6202.000,2.65126,
6201.000,2.63327,
6200.000,2.614,
6199.000,2.59551,
6198.000,2.57998,
6197.000,2.56828,
6196.000,2.55937,
6195.000,2.55165,
6194.000,2.54526,
6193.000,2.54158,
6192.000,2.5402,
6191.000,2.53797,
6190.000,2.5322,
6189.000,2.52365,
6188.000,2.51474,
6187.000,2.50605,
6186.000,2.49676,
6185.000,2.48735,
6184.000,2.47935,
6183.000,2.4721,
6182.000,2.46288,
6181.000,2.45096,
6180.000,2.43948,
6179.000,2.43166,
6178.000,2.42713,
6177.000,2.4236,
6176.000,2.42022,
6175.000,2.41703,
6174.000,2.41225,
6173.000,2.40311,
6172.000,2.39004,
6171.000,2.37775,
6170.000,2.3708,
6169.000,2.36905,
6168.000,2.3687,
6167.000,2.36698,
6166.000,2.36413,
6165.000,2.36163,
6164.000,2.36024,
6163.000,2.36036,
6162.000,2.36261,
6161.000,2.36668,
6160.000,2.37037,
6159.000,2.37113,
6158.000,2.36848,
6157.000,2.36401,
6156.000,2.35965,
6155.000,2.35678,
6154.000,2.35637,
6153.000,2.3582,
6152.000,2.36013,
6151.000,2.3596,
6150.000,2.35607,
6149.000,2.35087,
6148.000,2.34485,
6147.000,2.33824,
6146.000,2.33262,
6145.000,2.33084,
6144.000,2.33392,
6143.000,2.33995,
6142.000,2.34696,
6141.000,2.35481,
6140.000,2.36312,
6139.000,2.36973,
6138.000,2.37313,
6137.000,2.37474,
6136.000,2.37623,
6135.000,2.37638,
6134.000,2.37306,
6133.000,2.36718,
6132.000,2.36232,
6131.000,2.36085,
6130.000,2.36328,
6129.000,2.37006,
6128.000,2.3812,
6127.000,2.39412,
6126.000,2.40481,
6125.000,2.41163,
6124.000,2.41578,
6123.000,2.41813,
6122.000,2.41834,
6121.000,2.41738,
6120.000,2.41784,
6119.000,2.4209,
6118.000,2.42545,
6117.000,2.43127,
6116.000,2.44021,
6115.000,2.45287,
6114.000,2.46614,
6113.000,2.47621,
6112.000,2.48252,
6111.000,2.48737,
6110.000,2.49291,
6109.000,2.50033,
6108.000,2.5109,
6107.000,2.52533,
6106.000,2.54203,
6105.000,2.55734,
6104.000,2.56852,
6103.000,2.57609,
6102.000,2.58312,
6101.000,2.59201,
6100.000,2.60252,
6099.000,2.6132,
6098.000,2.62424,
6097.000,2.63738,
6096.000,2.65245,
6095.000,2.66632,
6094.000,2.67668,
6093.000,2.6852,
6092.000,2.69461,
6091.000,2.70466,
6090.000,2.7138,
6089.000,2.72375,
6088.000,2.73844,
6087.000,2.75778,
6086.000,2.77687,
6085.000,2.7921,
6084.000,2.80513,
6083.000,2.81907,
6082.000,2.83422,
6081.000,2.84963,
6080.000,2.86623,
6079.000,2.88537,
6078.000,2.90551,
6077.000,2.92311,
6076.000,2.93648,
6075.000,2.9474,
6074.000,2.95941,
6073.000,2.97526,
6072.000,2.99514,
6071.000,3.01676,
6070.000,3.03765,
6069.000,3.05779,
6068.000,3.07843,
6067.000,3.0987,
6066.000,3.116,
6065.000,3.13047,
6064.000,3.14629,
6063.000,3.16649,
6062.000,3.18893,
6061.000,3.20939,
6060.000,3.22693,
6059.000,3.24395,
6058.000,3.26232,
6057.000,3.28234,
6056.000,3.3043,
6055.000,3.32881,
6054.000,3.35561,
6053.000,3.38349,
6052.000,3.41108,
6051.000,3.43689,
6050.000,3.45964,
6049.000,3.47995,
6048.000,3.50038,
6047.000,3.52258,
6046.000,3.54569,
6045.000,3.56884,
6044.000,3.59357,
6043.000,3.62198,
6042.000,3.65375,
6041.000,3.68708,
6040.000,3.72111,
6039.000,3.75524,
6038.000,3.78707,
6037.000,3.81371,
6036.000,3.83521,
6035.000,3.85461,
6034.000,3.87499,
6033.000,3.898,
6032.000,3.92482,
6031.000,3.95592,
6030.000,3.98945,
6029.000,4.02194,
6028.000,4.05132,
6027.000,4.07841,
6026.000,4.10521,
6025.000,4.13302,
6024.000,4.1625,
6023.000,4.19434,
6022.000,4.22902,
6021.000,4.26639,
6020.000,4.30533,
6019.000,4.3436,
6018.000,4.37856,
6017.000,4.4091,
6016.000,4.43649,
6015.000,4.46312,
6014.000,4.49061,
6013.000,4.51993,
6012.000,4.55229,
6011.000,4.58846,
6010.000,4.62706,
6009.000,4.66475,
6008.000,4.69875,
6007.000,4.72908,
6006.000,4.7586,
6005.000,4.79084,
6004.000,4.82734,
6003.000,4.86672,
6002.000,4.90669,
6001.000,4.94653,
6000.000,4.98667,
5999.000,5.02663,
5998.000,5.06527,
5997.000,5.10309,
5996.000,5.14236,
5995.000,5.18397,
5994.000,5.22611,
5993.000,5.26684,
5992.000,5.30618,
5991.000,5.34477,
5990.000,5.3826,
5989.000,5.42043,
5988.000,5.46063,
5987.000,5.50448,
5986.000,5.5501,
5985.000,5.59461,
5984.000,5.63742,
5983.000,5.67971,
5982.000,5.72166,
5981.000,5.76268,
5980.000,5.80381,
5979.000,5.84728,
5978.000,5.89362,
5977.000,5.94061,
5976.000,5.98581,
5975.000,6.02896,
5974.000,6.07153,
5973.000,6.11481,
5972.000,6.15888,
5971.000,6.20342,
5970.000,6.24886,
5969.000,6.29595,
5968.000,6.34417,
5967.000,6.39167,
5966.000,6.4378,
5965.000,6.48485,
5964.000,6.53548,
5963.000,6.58884,
5962.000,6.64114,
5961.000,6.69016,
5960.000,6.73719,
5959.000,6.7843,
5958.000,6.83216,
5957.000,6.88126,
5956.000,6.93306,
5955.000,6.98845,
5954.000,7.04614,
5953.000,7.10358,
5952.000,7.15867,
5951.000,7.21062,
5950.000,7.26055,
5949.000,7.3114,
5948.000,7.36529,
5947.000,7.42093,
5946.000,7.47537,
5945.000,7.52835,
5944.000,7.58227,
5943.000,7.63763,
5942.000,7.69169,
5941.000,7.74271,
5940.000,7.7928,
5939.000,7.84501,
5938.000,7.89992,
5937.000,7.95644,
5936.000,8.01388,
5935.000,8.07159,
5934.000,8.1285,
5933.000,8.18422,
5932.000,8.23944,
5931.000,8.29448,
5930.000,8.34918,
5929.000,8.40464,
5928.000,8.46236,
5927.000,8.52115,
5926.000,8.57784,
5925.000,8.63184,
5924.000,8.68636,
5923.000,8.74356,
5922.000,8.80167,
5921.000,8.85839,
5920.000,8.914,
5919.000,8.96948,
5918.000,9.0245,
5917.000,9.07933,
5916.000,9.13589,
5915.000,9.19459,
5914.000,9.25241,
5913.000,9.30641,
5912.000,9.35725,
5911.000,9.40728,
5910.000,9.45753,
5909.000,9.5086,
5908.000,9.56189,
5907.000,9.61755,
5906.000,9.67311,
5905.000,9.72646,
5904.000,9.77849,
5903.000,9.83081,
5902.000,9.88304,
5901.000,9.93397,
5900.000,9.98339,
5899.000,10.0307,
5898.000,10.0742,
5897.000,10.1141,
5896.000,10.1539,
5895.000,10.1963,
5894.000,10.2405,
5893.000,10.2834,
5892.000,10.3241,
5891.000,10.363,
5890.000,10.3998,
5889.000,10.4346,
5888.000,10.4686,
5887.000,10.5023,
5886.000,10.5335,
5885.000,10.561,
5884.000,10.5866,
5883.000,10.613,
5882.000,10.6403,
5881.000,10.6671,
5880.000,10.6932,
5879.000,10.7181,
5878.000,10.7399,
5877.000,10.7574,
5876.000,10.773,
5875.000,10.7897,
5874.000,10.8073,
5873.000,10.8231,
5872.000,10.8355,
5871.000,10.845,
5870.000,10.8521,
5869.000,10.8571,
5868.000,10.86,
5867.000,10.8613,
5866.000,10.861,
5865.000,10.8595,
5864.000,10.8575,
5863.000,10.8546,
5862.000,10.8493,
5861.000,10.8408,
5860.000,10.8303,
5859.000,10.8185,
5858.000,10.8052,
5857.000,10.7916,
5856.000,10.7801,
5855.000,10.7711,
5854.000,10.7608,
5853.000,10.7455,
5852.000,10.7252,
5851.000,10.7017,
5850.000,10.6758,
5849.000,10.6479,
5848.000,10.6194,
5847.000,10.5917,
5846.000,10.5642,
5845.000,10.535,
5844.000,10.504,
5843.000,10.4721,
5842.000,10.4395,
5841.000,10.4058,
5840.000,10.3714,
5839.000,10.3367,
5838.000,10.3016,
5837.000,10.266,
5836.000,10.231,
5835.000,10.1967,
5834.000,10.1615,
5833.000,10.1236,
5832.000,10.0831,
5831.000,10.0407,
5830.000,9.99697,
5829.000,9.95293,
5828.000,9.90998,
5827.000,9.86872,
5826.000,9.82817,
5825.000,9.78745,
5824.000,9.74687,
5823.000,9.70642,
5822.000,9.66464,
5821.000,9.62027,
5820.000,9.57374,
5819.000,9.52614,
5818.000,9.47793,
5817.000,9.42973,
5816.000,9.38306,
5815.000,9.3387,
5814.000,9.2953,
5813.000,9.25064,
5812.000,9.20396,
5811.000,9.15622,
5810.000,9.10899,
5809.000,9.06385,
5808.000,9.02153,
5807.000,8.98087,
5806.000,8.93937,
5805.000,8.89556,
5804.000,8.85015,
5803.000,8.80434,
5802.000,8.75831,
5801.000,8.71198,
5800.000,8.66594,
5799.000,8.62067,
5798.000,8.57583,
5797.000,8.53109,
5796.000,8.4869,
5795.000,8.44345,
5794.000,8.39982,
5793.000,8.35496,
5792.000,8.30884,
5791.000,8.26221,
5790.000,8.21594,
5789.000,8.17103,
5788.000,8.12827,
5787.000,8.08729,
5786.000,8.04661,
5785.000,8.0049,
5784.000,7.9616,
5783.000,7.91647,
5782.000,7.86982,
5781.000,7.82313,
5780.000,7.77798,
5779.000,7.73398,
5778.000,7.6892,
5777.000,7.64293,
5776.000,7.59673,
5775.000,7.55231,
5774.000,7.50991,
5773.000,7.46928,
5772.000,7.43075,
5771.000,7.39405,
5770.000,7.35729,
5769.000,7.31813,
5768.000,7.27559,
5767.000,7.23036,
5766.000,7.1841,
5765.000,7.13899,
5764.000,7.0965,
5763.000,7.05604,
5762.000,7.01573,
5761.000,6.97458,
5760.000,6.93304,
5759.000,6.89133,
5758.000,6.84885,
5757.000,6.8058,
5756.000,6.76371,
5755.000,6.72331,
5754.000,6.68337,
5753.000,6.64262,
5752.000,6.60171,
5751.000,6.56191,
5750.000,6.52297,
5749.000,6.48338,
5748.000,6.44238,
5747.000,6.40055,
5746.000,6.35908,
5745.000,6.31909,
5744.000,6.28128,
5743.000,6.24538,
5742.000,6.21014,
5741.000,6.1744,
5740.000,6.13791,
5739.000,6.10108,
5738.000,6.06486,
5737.000,6.03041,
5736.000,5.99792,
5735.000,5.96528,
5734.000,5.92943,
5733.000,5.88978,
5732.000,5.84882,
5731.000,5.80916,
5730.000,5.77107,
5729.000,5.73402,
5728.000,5.69869,
5727.000,5.66551,
5726.000,5.63272,
5725.000,5.59791,
5724.000,5.56128,
5723.000,5.52555,
5722.000,5.49241,
5721.000,5.46097,
5720.000,5.42975,
5719.000,5.39842,
5718.000,5.36687,
5717.000,5.33402,
5716.000,5.29893,
5715.000,5.26252,
5714.000,5.22703,
5713.000,5.19358,
5712.000,5.16112,
5711.000,5.12797,
5710.000,5.09379,
5709.000,5.05951,
5708.000,5.02595,
5707.000,4.99309,
5706.000,4.96063,
5705.000,4.92836,
5704.000,4.8957,
5703.000,4.86181,
5702.000,4.82679,
5701.000,4.79237,
5700.000,4.76045,
5699.000,4.73121,
5698.000,4.70317,
5697.000,4.67482,
5696.000,4.64529,
5695.000,4.61393,
5694.000,4.58063,
5693.000,4.54651,
5692.000,4.51377,
5691.000,4.48353,
5690.000,4.4551,
5689.000,4.42749,
5688.000,4.40028,
5687.000,4.37299,
5686.000,4.34443,
5685.000,4.31382,
5684.000,4.28185,
5683.000,4.25001,
5682.000,4.21913,
5681.000,4.18919,
5680.000,4.16004,
5679.000,4.1316,
5678.000,4.10344,
5677.000,4.07501,
5676.000,4.04589,
5675.000,4.01577,
5674.000,3.98423,
5673.000,3.95153,
5672.000,3.91914,
5671.000,3.88893,
5670.000,3.86148,
5669.000,3.83562,
5668.000,3.80983,
5667.000,3.78347,
5666.000,3.7566,
5665.000,3.72901,
5664.000,3.69993,
5663.000,3.66897,
5662.000,3.63687,
5661.000,3.60506,
5660.000,3.57484,
5659.000,3.5471,
5658.000,3.52229,
5657.000,3.50011,
5656.000,3.47885,
5655.000,3.45587,
5654.000,3.42963,
5653.000,3.40109,
5652.000,3.3727,
5651.000,3.34595,
5650.000,3.3205,
5649.000,3.29539,
5648.000,3.27049,
5647.000,3.24625,
5646.000,3.22278,
5645.000,3.19976,
5644.000,3.17695,
5643.000,3.15435,
5642.000,3.13182,
5641.000,3.10901,
5640.000,3.08588,
5639.000,3.06291,
5638.000,3.04063,
5637.000,3.01891,
5636.000,2.99673,
5635.000,2.9729,
5634.000,2.94697,
5633.000,2.91957,
5632.000,2.8919,
5631.000,2.86507,
5630.000,2.84005,
5629.000,2.81768,
5628.000,2.79843,
5627.000,2.78201,
5626.000,2.7673,
5625.000,2.75263,
5624.000,2.73604,
5623.000,2.71598,
5622.000,2.6922,
5621.000,2.66621,
5620.000,2.64049,
5619.000,2.61686,
5618.000,2.59567,
5617.000,2.5762,
5616.000,2.55744,
5615.000,2.53863,
5614.000,2.51954,
5613.000,2.50033,
5612.000,2.48113,
5611.000,2.46162,
5610.000,2.44149,
5609.000,2.42115,
5608.000,2.40175,
5607.000,2.38434,
5606.000,2.36893,
5605.000,2.35443,
5604.000,2.33912,
5603.000,2.32145,
5602.000,2.30122,
5601.000,2.2803,
5600.000,2.26172,
5599.000,2.24727,
5598.000,2.23597,
5597.000,2.22501,
5596.000,2.21217,
5595.000,2.19709,
5594.000,2.18064,
5593.000,2.16369,
5592.000,2.14677,
5591.000,2.13043,
5590.000,2.11525,
5589.000,2.10148,
5588.000,2.08861,
5587.000,2.07572,
5586.000,2.06214,
5585.000,2.04765,
5584.000,2.03203,
5583.000,2.01511,
5582.000,1.99765,
5581.000,1.98178,
5580.000,1.96941,
5579.000,1.96,
5578.000,1.95061,
5577.000,1.93863,
5576.000,1.9242,
5575.000,1.90948,
5574.000,1.89629,
5573.000,1.88508,
5572.000,1.87573,
5571.000,1.86785,
5570.000,1.86021,
5569.000,1.85099,
5568.000,1.83956,
5567.000,1.82747,
5566.000,1.81689,
5565.000,1.80838,
5564.000,1.8007,
5563.000,1.79269,
5562.000,1.78432,
5561.000,1.77598,
5560.000,1.76757,
5559.000,1.759,
5558.000,1.75077,
5557.000,1.74345,
5556.000,1.7368,
5555.000,1.73001,
5554.000,1.72266,
5553.000,1.71513,
5552.000,1.70805,
5551.000,1.70152,
5550.000,1.69509,
5549.000,1.68841,
5548.000,1.68169,
5547.000,1.67544,
5546.000,1.66974,
5545.000,1.66391,
5544.000,1.65728,
5543.000,1.64995,
5542.000,1.64275,
5541.000,1.63641,
5540.000,1.63122,
5539.000,1.62748,
5538.000,1.62531,
5537.000,1.62387,
5536.000,1.6214,
5535.000,1.61692,
5534.000,1.61143,
5533.000,1.60674,
5532.000,1.60344,
5531.000,1.60053,
5530.000,1.59681,
5529.000,1.59184,
5528.000,1.5858,
5527.000,1.57937,
5526.000,1.57405,
5525.000,1.57138,
5524.000,1.57142,
5523.000,1.57252,
5522.000,1.573,
5521.000,1.57235,
5520.000,1.57062,
5519.000,1.56773,
5518.000,1.56401,
5517.000,1.5607,
5516.000,1.559,
5515.000,1.55883,
5514.000,1.55913,
5513.000,1.55914,
5512.000,1.55861,
5511.000,1.55714,
5510.000,1.55426,
5509.000,1.5504,
5508.000,1.54688,
5507.000,1.5448,
5506.000,1.54427,
5505.000,1.5448,
5504.000,1.5458,
5503.000,1.54654,
5502.000,1.54625,
5501.000,1.54495,
5500.000,1.54371,
5499.000,1.54396,
5498.000,1.54631,
5497.000,1.55017,
5496.000,1.5542,
5495.000,1.55712,
5494.000,1.55811,
5493.000,1.55703,
5492.000,1.55438,
5491.000,1.55115,
5490.000,1.54857,
5489.000,1.54764,
5488.000,1.54848,
5487.000,1.55044,
5486.000,1.55288,
5485.000,1.55574,
5484.000,1.55905,
5483.000,1.56242,
5482.000,1.56548,
5481.000,1.56853,
5480.000,1.5723,
5479.000,1.57697,
5478.000,1.58199,
5477.000,1.58678,
5476.000,1.59138,
5475.000,1.59625,
5474.000,1.60184,
5473.000,1.6082,
5472.000,1.61472,
5471.000,1.62012,
5470.000,1.62329,
5469.000,1.62444,
5468.000,1.6253,
5467.000,1.62802,
5466.000,1.63377,
5465.000,1.64217,
5464.000,1.65159,
5463.000,1.66023,
5462.000,1.66706,
5461.000,1.67208,
5460.000,1.67584,
5459.000,1.67901,
5458.000,1.68255,
5457.000,1.6877,
5456.000,1.69512,
5455.000,1.70429,
5454.000,1.71413,
5453.000,1.72413,
5452.000,1.7342,
5451.000,1.74361,
5450.000,1.75116,
5449.000,1.75663,
5448.000,1.76139,
5447.000,1.76685,
5446.000,1.77316,
5445.000,1.77989,
5444.000,1.78737,
5443.000,1.79649,
5442.000,1.8071,
5441.000,1.8179,
5440.000,1.82795,
5439.000,1.83766,
5438.000,1.84816,
5437.000,1.86008,
5436.000,1.8731,
5435.000,1.88631,
5434.000,1.89871,
5433.000,1.90963,
5432.000,1.9191,
5431.000,1.92779,
5430.000,1.93639,
5429.000,1.94523,
5428.000,1.95442,
5427.000,1.96427,
5426.000,1.97525,
5425.000,1.9876,
5424.000,2.00104,
5423.000,2.01489,
5422.000,2.0284,
5421.000,2.04105,
5420.000,2.05272,
5419.000,2.06394,
5418.000,2.07606,
5417.000,2.09083,
5416.000,2.10899,
5415.000,2.1293,
5414.000,2.14948,
5413.000,2.1681,
5412.000,2.18531,
5411.000,2.20174,
5410.000,2.21753,
5409.000,2.23261,
5408.000,2.24728,
5407.000,2.262,
5406.000,2.2769,
5405.000,2.29207,
5404.000,2.30807,
5403.000,2.32587,
5402.000,2.34595,
5401.000,2.36778,
5400.000,2.39024,
5399.000,2.41236,
5398.000,2.43369,
5397.000,2.45412,
5396.000,2.47382,
5395.000,2.49322,
5394.000,2.51312,
5393.000,2.53409,
5392.000,2.55572,
5391.000,2.57696,
5390.000,2.59762,
5389.000,2.6188,
5388.000,2.64135,
5387.000,2.66452,
5386.000,2.68715,
5385.000,2.70954,
5384.000,2.73278,
5383.000,2.75684,
5382.000,2.78071,
5381.000,2.8043,
5380.000,2.8288,
5379.000,2.85465,
5378.000,2.88061,
5377.000,2.90565,
5376.000,2.93053,
5375.000,2.95625,
5374.000,2.9823,
5373.000,3.00779,
5372.000,3.03347,
5371.000,3.06097,
5370.000,3.09047,
5369.000,3.12034,
5368.000,3.14921,
5367.000,3.17702,
5366.000,3.20437,
5365.000,3.2316,
5364.000,3.25884,
5363.000,3.28637,
5362.000,3.31443,
5361.000,3.34299,
5360.000,3.37196,
5359.000,3.4016,
5358.000,3.43259,
5357.000,3.46558,
5356.000,3.50032,
5355.000,3.53525,
5354.000,3.56862,
5353.000,3.59983,
5352.000,3.62959,
5351.000,3.65888,
5350.000,3.68839,
5349.000,3.71888,
5348.000,3.75113,
5347.000,3.7853,
5346.000,3.82068,
5345.000,3.85647,
5344.000,3.89233,
5343.000,3.92821,
5342.000,3.96427,
5341.000,4.00089,
5340.000,4.03803,
5339.000,4.07465,
5338.000,4.10967,
5337.000,4.14349,
5336.000,4.17771,
5335.000,4.21341,
5334.000,4.2506,
5333.000,4.28923,
5332.000,4.32956,
5331.000,4.37124,
5330.000,4.41297,
5329.000,4.45375,
5328.000,4.4936,
5327.000,4.53319,
5326.000,4.57321,
5325.000,4.6147,
5324.000,4.65876,
5323.000,4.70493,
5322.000,4.75078,
5321.000,4.79389,
5320.000,4.83376,
5319.000,4.87185,
5318.000,4.91038,
5317.000,4.95117,
5316.000,4.99466,
5315.000,5.03964,
5314.000,5.08457,
5313.000,5.12938,
5312.000,5.17506,
5311.000,5.2219,
5310.000,5.26928,
5309.000,5.31705,
5308.000,5.36564,
5307.000,5.41454,
5306.000,5.46226,
5305.000,5.50815,
5304.000,5.55312,
5303.000,5.59796,
5302.000,5.64232,
5301.000,5.68629,
5300.000,5.73148,
5299.000,5.77935,
5298.000,5.82944,
5297.000,5.88023,
5296.000,5.93109,
5295.000,5.98238,
5294.000,6.03452,
5293.000,6.08772,
5292.000,6.14193,
5291.000,6.19638,
5290.000,6.24985,
5289.000,6.30202,
5288.000,6.35386,
5287.000,6.40593,
5286.000,6.45743,
5285.000,6.50743,
5284.000,6.55662,
5283.000,6.60687,
5282.000,6.65966,
5281.000,6.71506,
5280.000,6.77188,
5279.000,6.82799,
5278.000,6.88165,
5277.000,6.93303,
5276.000,6.98424,
5275.000,7.03722,
5274.000,7.09218,
5273.000,7.14807,
5272.000,7.2038,
5271.000,7.25866,
5270.000,7.31247,
5269.000,7.36585,
5268.000,7.41968,
5267.000,7.4742,
5266.000,7.52908,
5265.000,7.58435,
5264.000,7.64036,
5263.000,7.69692,
5262.000,7.7534,
5261.000,7.80988,
5260.000,7.8669,
5259.000,7.92395,
5258.000,7.97978,
5257.000,8.03403,
5256.000,8.08712,
5255.000,8.13878,
5254.000,8.18852,
5253.000,8.23743,
5252.000,8.28767,
5251.000,8.33948,
5250.000,8.39063,
5249.000,8.43921,
5248.000,8.48542,
5247.000,8.53032,
5246.000,8.57452,
5245.000,8.6186,
5244.000,8.6633,
5243.000,8.70804,
5242.000,8.75107,
5241.000,8.79201,
5240.000,8.83249,
5239.000,8.87334,
5238.000,8.91329,
5237.000,8.95127,
5236.000,8.98788,
5235.000,9.02363,
5234.000,9.05753,
5233.000,9.08849,
5232.000,9.1167,
5231.000,9.1427,
5230.000,9.16621,
5229.000,9.18739,
5228.000,9.2078,
5227.000,9.22878,
5226.000,9.24966,
5225.000,9.26907,
5224.000,9.28708,
5223.000,9.30442,
5222.000,9.32054,
5221.000,9.33419,
5220.000,9.345,
5219.000,9.35321,
5218.000,9.3586,
5217.000,9.36118,
5216.000,9.36185,
5215.000,9.36126,
5214.000,9.35875,
5213.000,9.35348,
5212.000,9.34566,
5211.000,9.33584,
5210.000,9.32375,
5209.000,9.3094,
5208.000,9.29399,
5207.000,9.27845,
5206.000,9.26214,
5205.000,9.2442,
5204.000,9.22502,
5203.000,9.20525,
5202.000,9.18439,
5201.000,9.16174,
5200.000,9.1378,
5199.000,9.11346,
5198.000,9.08829,
5197.000,9.06081,
5196.000,9.03037,
5195.000,8.99761,
5194.000,8.96329,
5193.000,8.92784,
5192.000,8.89177,
5191.000,8.85546,
5190.000,8.81865,
5189.000,8.78093,
5188.000,8.74248,
5187.000,8.70365,
5186.000,8.6643,
5185.000,8.62421,
5184.000,8.58372,
5183.000,8.54316,
5182.000,8.50221,
5181.000,8.4603,
5180.000,8.41721,
5179.000,8.37299,
5178.000,8.32776,
5177.000,8.28221,
5176.000,8.23767,
5175.000,8.19482,
5174.000,8.15282,
5173.000,8.11033,
5172.000,8.06684,
5171.000,8.02244,
5170.000,7.97691,
5169.000,7.92997,
5168.000,7.88197,
5167.000,7.83371,
5166.000,7.78577,
5165.000,7.73854,
5164.000,7.69239,
5163.000,7.6473,
5162.000,7.60276,
5161.000,7.55813,
5160.000,7.51312,
5159.000,7.46749,
5158.000,7.42103,
5157.000,7.37414,
5156.000,7.32783,
5155.000,7.28256,
5154.000,7.23775,
5153.000,7.19278,
5152.000,7.14791,
5151.000,7.10352,
5150.000,7.05932,
5149.000,7.01498,
5148.000,6.97087,
5147.000,6.9276,
5146.000,6.88504,
5145.000,6.84263,
5144.000,6.80015,
5143.000,6.75762,
5142.000,6.71475,
5141.000,6.67113,
5140.000,6.62692,
5139.000,6.58272,
5138.000,6.53884,
5137.000,6.49508,
5136.000,6.45124,
5135.000,6.4076,
5134.000,6.36478,
5133.000,6.32343,
5132.000,6.28377,
5131.000,6.24524,
5130.000,6.20657,
5129.000,6.1665,
5128.000,6.12466,
5127.000,6.08161,
5126.000,6.03831,
5125.000,5.99552,
5124.000,5.95376,
5123.000,5.91332,
5122.000,5.87428,
5121.000,5.83642,
5120.000,5.79918,
5119.000,5.7617,
5118.000,5.72327,
5117.000,5.68364,
5116.000,5.64316,
5115.000,5.60246,
5114.000,5.56228,
5113.000,5.52324,
5112.000,5.48565,
5111.000,5.44932,
5110.000,5.41355,
5109.000,5.37733,
5108.000,5.33962,
5107.000,5.30006,
5106.000,5.25936,
5105.000,5.21903,
5104.000,5.18043,
5103.000,5.14396,
5102.000,5.10914,
5101.000,5.0749,
5100.000,5.04001,
5099.000,5.00376,
5098.000,4.9666,
5097.000,4.92977,
5096.000,4.8939,
5095.000,4.85865,
5094.000,4.82353,
5093.000,4.78863,
5092.000,4.75402,
5091.000,4.71917,
5090.000,4.68354,
5089.000,4.64741,
5088.000,4.61137,
5087.000,4.57548,
5086.000,4.53965,
5085.000,4.50444,
5084.000,4.47068,
5083.000,4.4385,
5082.000,4.40726,
5081.000,4.37638,
5080.000,4.34545,
5079.000,4.31374,
5078.000,4.28046,
5077.000,4.24577,
5076.000,4.21096,
5075.000,4.17744,
5074.000,4.14582,
5073.000,4.11556,
5072.000,4.08515,
5071.000,4.05285,
5070.000,4.01803,
5069.000,3.98189,
5068.000,3.94661,
5067.000,3.91367,
5066.000,3.88331,
5065.000,3.85493,
5064.000,3.82743,
5063.000,3.79941,
5062.000,3.77001,
5061.000,3.73965,
5060.000,3.70942,
5059.000,3.67975,
5058.000,3.65006,
5057.000,3.61967,
5056.000,3.58848,
5055.000,3.55679,
5054.000,3.52513,
5053.000,3.49417,
5052.000,3.46422,
5051.000,3.43471,
5050.000,3.40464,
5049.000,3.37382,
5048.000,3.34315,
5047.000,3.31371,
5046.000,3.28593,
5045.000,3.25967,
5044.000,3.23432,
5043.000,3.209,
5042.000,3.18289,
5041.000,3.1557,
5040.000,3.12758,
5039.000,3.09871,
5038.000,3.06935,
5037.000,3.04014,
5036.000,3.01171,
5035.000,2.98403,
5034.000,2.9568,
5033.000,2.93029,
5032.000,2.90514,
5031.000,2.88118,
5030.000,2.857,
5029.000,2.83114,
5028.000,2.80318,
5027.000,2.77385,
5026.000,2.74453,
5025.000,2.71678,
5024.000,2.69153,
5023.000,2.66843,
5022.000,2.64606,
5021.000,2.62316,
5020.000,2.59929,
5019.000,2.57441,
5018.000,2.54849,
5017.000,2.52197,
5016.000,2.49589,
5015.000,2.47131,
5014.000,2.44846,
5013.000,2.42681,
5012.000,2.40555,
5011.000,2.38397,
5010.000,2.3617,
5009.000,2.33893,
5008.000,2.31624,
5007.000,2.29407,
5006.000,2.27241,
5005.000,2.25111,
5004.000,2.23009,
5003.000,2.20923,
5002.000,2.18834,
5001.000,2.16746,
5000.000,2.14689,
4999.000,2.12675,
4998.000,2.10669,
4997.000,2.08615,
4996.000,2.06477,
4995.000,2.0427,
4994.000,2.02043,
4993.000,1.99883,
4992.000,1.97862,
4991.000,1.95982,
4990.000,1.94183,
4989.000,1.92406,
4988.000,1.90636,
4987.000,1.88857,
4986.000,1.87041,
4985.000,1.85192,
4984.000,1.83384,
4983.000,1.81711,
4982.000,1.80191,
4981.000,1.7875,
4980.000,1.77264,
4979.000,1.75624,
4978.000,1.73789,
4977.000,1.71821,
4976.000,1.69867,
4975.000,1.68073,
4974.000,1.66479,
4973.000,1.6501,
4972.000,1.63551,
4971.000,1.62043,
4970.000,1.60513,
4969.000,1.59027,
4968.000,1.57611,
4967.000,1.56233,
4966.000,1.54861,
4965.000,1.53519,
4964.000,1.52255,
4963.000,1.51064,
4962.000,1.49877,
4961.000,1.48631,
4960.000,1.47331,
4959.000,1.46033,
4958.000,1.44797,
4957.000,1.4365,
4956.000,1.42578,
4955.000,1.4152,
4954.000,1.40429,
4953.000,1.39324,
4952.000,1.38271,
4951.000,1.37297,
4950.000,1.36352,
4949.000,1.35385,
4948.000,1.34389,
4947.000,1.3336,
4946.000,1.32243,
4945.000,1.3099,
4944.000,1.29647,
4943.000,1.28363,
4942.000,1.27273,
4941.000,1.26397,
4940.000,1.25638,
4939.000,1.24855,
4938.000,1.23969,
4937.000,1.23026,
4936.000,1.22147,
4935.000,1.21395,
4934.000,1.20716,
4933.000,1.20027,
4932.000,1.19333,
4931.000,1.18704,
4930.000,1.18155,
4929.000,1.17603,
4928.000,1.16951,
4927.000,1.16194,
4926.000,1.15429,
4925.000,1.14788,
4924.000,1.14342,
4923.000,1.14035,
4922.000,1.13689,
4921.000,1.13121,
4920.000,1.1228,
4919.000,1.11281,
4918.000,1.10312,
4917.000,1.09515,
4916.000,1.08939,
4915.000,1.08538,
4914.000,1.08222,
4913.000,1.07917,
4912.000,1.07609,
4911.000,1.07314,
4910.000,1.07009,
4909.000,1.06643,
4908.000,1.06196,
4907.000,1.05713,
4906.000,1.05249,
4905.000,1.04809,
4904.000,1.04374,
4903.000,1.03948,
4902.000,1.03568,
4901.000,1.03271,
4900.000,1.03055,
4899.000,1.02841,
4898.000,1.02489,
4897.000,1.01906,
4896.000,1.01163,
4895.000,1.0048,
4894.000,1.00044,
4893.000,0.998503,
4892.000,0.997463,
4891.000,0.995981,
4890.000,0.993961,
4889.000,0.992172,
4888.000,0.991382,
4887.000,0.991778,
4886.000,0.992726,
4885.000,0.992959,
4884.000,0.99138,
4883.000,0.988,
4882.000,0.98395,
4881.000,0.980486,
4880.000,0.978105,
4879.000,0.976583,
4878.000,0.975412,
4877.000,0.974084,
4876.000,0.972376,
4875.000,0.970611,
4874.000,0.969428,
4873.000,0.969005,
4872.000,0.968639,
4871.000,0.967374,
4870.000,0.964988,
4869.000,0.962116,
4868.000,0.959482,
4867.000,0.957349,
4866.000,0.955747,
4865.000,0.95485,
4864.000,0.954845,
4863.000,0.955558,
4862.000,0.956442,
4861.000,0.956924,
4860.000,0.956797,
4859.000,0.956356,
4858.000,0.956189,
4857.000,0.956722,
4856.000,0.957861,
4855.000,0.959129,
4854.000,0.960141,
4853.000,0.960831,
4852.000,0.961191,
4851.000,0.961068,
4850.000,0.960418,
4849.000,0.959599,
4848.000,0.959251,
4847.000,0.959877,
4846.000,0.961525,
4845.000,0.963688,
4844.000,0.965463,
4843.000,0.966084,
4842.000,0.965559,
4841.000,0.96473,
4840.000,0.964593,
4839.000,0.96561,
4838.000,0.967672,
4837.000,0.970409,
4836.000,0.973304,
4835.000,0.975698,
4834.000,0.977138,
4833.000,0.977743,
4832.000,0.978059,
4831.000,0.978593,
4830.000,0.979672,
4829.000,0.981587,
4828.000,0.984457,
4827.000,0.987931,
4826.000,0.991356,
4825.000,0.994351,
4824.000,0.997017,
4823.000,0.999527,
4822.000,1.00176,
4821.000,1.00349,
4820.000,1.00483,
4819.000,1.00622,
4818.000,1.00824,
4817.000,1.0112,
4816.000,1.01497,
4815.000,1.01896,
4814.000,1.02264,
4813.000,1.02587,
4812.000,1.02887,
4811.000,1.0317,
4810.000,1.03424,
4809.000,1.03643,
4808.000,1.03849,
4807.000,1.04083,
4806.000,1.04392,
4805.000,1.04802,
4804.000,1.05286,
4803.000,1.05774,
4802.000,1.06223,
4801.000,1.06664,
4800.000,1.07155,
4799.000,1.07699,
4798.000,1.08242,
4797.000,1.08746,
4796.000,1.09215,
4795.000,1.09648,
4794.000,1.1004,
4793.000,1.10426,
4792.000,1.10884,
4791.000,1.11447,
4790.000,1.12076,
4789.000,1.12711,
4788.000,1.1332,
4787.000,1.13894,
4786.000,1.14441,
4785.000,1.15021,
4784.000,1.15726,
4783.000,1.16575,
4782.000,1.17483,
4781.000,1.18359,
4780.000,1.19201,
4779.000,1.20061,
4778.000,1.20941,
4777.000,1.21783,
4776.000,1.22539,
4775.000,1.23207,
4774.000,1.23825,
4773.000,1.24471,
4772.000,1.25243,
4771.000,1.26185,
4770.000,1.27229,
4769.000,1.28242,
4768.000,1.29134,
4767.000,1.29891,
4766.000,1.30549,
4765.000,1.31177,
4764.000,1.31887,
4763.000,1.32791,
4762.000,1.33918,
4761.000,1.35215,
4760.000,1.36599,
4759.000,1.37992,
4758.000,1.39313,
4757.000,1.40495,
4756.000,1.41533,
4755.000,1.425,
4754.000,1.43488,
4753.000,1.44557,
4752.000,1.45728,
4751.000,1.4698,
4750.000,1.48263,
4749.000,1.49529,
4748.000,1.50788,
4747.000,1.52101,
4746.000,1.53512,
4745.000,1.55006,
4744.000,1.56529,
4743.000,1.58033,
4742.000,1.59499,
4741.000,1.60927,
4740.000,1.62346,
4739.000,1.63816,
4738.000,1.65393,
4737.000,1.671,
4736.000,1.68906,
4735.000,1.7075,
4734.000,1.7257,
4733.000,1.7434,
4732.000,1.76081,
4731.000,1.77821,
4730.000,1.79558,
4729.000,1.81256,
4728.000,1.82895,
4727.000,1.84517,
4726.000,1.86222,
4725.000,1.88119,
4724.000,1.90253,
4723.000,1.92567,
4722.000,1.94919,
4721.000,1.97148,
4720.000,1.99172,
4719.000,2.0103,
4718.000,2.0287,
4717.000,2.04854,
4716.000,2.07066,
4715.000,2.09451,
4714.000,2.11866,
4713.000,2.14185,
4712.000,2.16383,
4711.000,2.18543,
4710.000,2.20782,
4709.000,2.23163,
4708.000,2.25649,
4707.000,2.28133,
4706.000,2.30531,
4705.000,2.32867,
4704.000,2.35253,
4703.000,2.37786,
4702.000,2.40451,
4701.000,2.43136,
4700.000,2.45738,
4699.000,2.48252,
4698.000,2.50772,
4697.000,2.53404,
4696.000,2.56181,
4695.000,2.59059,
4694.000,2.61969,
4693.000,2.6487,
4692.000,2.6774,
4691.000,2.70568,
4690.000,2.73351,
4689.000,2.76118,
4688.000,2.78906,
4687.000,2.81742,
4686.000,2.84626,
4685.000,2.87546,
4684.000,2.9048,
4683.000,2.9341,
4682.000,2.96351,
4681.000,2.99346,
4680.000,3.02421,
4679.000,3.05556,
4678.000,3.08718,
4677.000,3.11889,
4676.000,3.15066,
4675.000,3.18255,
4674.000,3.2147,
4673.000,3.2474,
4672.000,3.28072,
4671.000,3.31443,
4670.000,3.34851,
4669.000,3.38338,
4668.000,3.41936,
4667.000,3.45598,
4666.000,3.49239,
4665.000,3.52821,
4664.000,3.56389,
4663.000,3.60015,
4662.000,3.63753,
4661.000,3.67619,
4660.000,3.7156,
4659.000,3.75474,
4658.000,3.79299,
4657.000,3.8308,
4656.000,3.86929,
4655.000,3.90921,
4654.000,3.95061,
4653.000,3.99312,
4652.000,4.03613,
4651.000,4.07895,
4650.000,4.12131,
4649.000,4.16369,
4648.000,4.20678,
4647.000,4.2507,
4646.000,4.29504,
4645.000,4.33942,
4644.000,4.38363,
4643.000,4.42744,
4642.000,4.47087,
4641.000,4.51457,
4640.000,4.55937,
4639.000,4.60542,
4638.000,4.65205,
4637.000,4.69847,
4636.000,4.74426,
4635.000,4.78956,
4634.000,4.83511,
4633.000,4.88203,
4632.000,4.93094,
4631.000,4.98125,
4630.000,5.03171,
4629.000,5.08142,
4628.000,5.13008,
4627.000,5.17774,
4626.000,5.22492,
4625.000,5.27273,
4624.000,5.32207,
4623.000,5.37276,
4622.000,5.42384,
4621.000,5.47464,
4620.000,5.5249,
4619.000,5.57436,
4618.000,5.62284,
4617.000,5.67071,
4616.000,5.71862,
4615.000,5.76689,
4614.000,5.81558,
4613.000,5.86489,
4612.000,5.91475,
4611.000,5.96445,
4610.000,6.01344,
4609.000,6.06218,
4608.000,6.11157,
4607.000,6.16166,
4606.000,6.21174,
4605.000,6.26146,
4604.000,6.31084,
4603.000,6.3596,
4602.000,6.40738,
4601.000,6.45447,
4600.000,6.50157,
4599.000,6.54869,
4598.000,6.59514,
4597.000,6.6405,
4596.000,6.6849,
4595.000,6.72843,
4594.000,6.77118,
4593.000,6.81359,
4592.000,6.85587,
4591.000,6.89722,
4590.000,6.93648,
4589.000,6.97365,
4588.000,7.00988,
4587.000,7.04586,
4586.000,7.08126,
4585.000,7.11542,
4584.000,7.14776,
4583.000,7.17742,
4582.000,7.20376,
4581.000,7.2273,
4580.000,7.24945,
4579.000,7.27103,
4578.000,7.29185,
4577.000,7.31155,
4576.000,7.33001,
4575.000,7.34673,
4574.000,7.36098,
4573.000,7.3726,
4572.000,7.382,
4571.000,7.38929,
4570.000,7.39401,
4569.000,7.39607,
4568.000,7.39599,
4567.000,7.39427,
4566.000,7.39099,
4565.000,7.38607,
4564.000,7.37945,
4563.000,7.37075,
4562.000,7.35975,
4561.000,7.34691,
4560.000,7.33284,
4559.000,7.3173,
4558.000,7.29945,
4557.000,7.27935,
4556.000,7.2582,
4555.000,7.23711,
4554.000,7.21604,
4553.000,7.19391,
4552.000,7.16916,
4551.000,7.14046,
4550.000,7.10777,
4549.000,7.07294,
4548.000,7.03851,
4547.000,7.00571,
4546.000,6.97396,
4545.000,6.94186,
4544.000,6.90831,
4543.000,6.87281,
4542.000,6.8357,
4541.000,6.79814,
4540.000,6.76114,
4539.000,6.72454,
4538.000,6.68725,
4537.000,6.64861,
4536.000,6.6088,
4535.000,6.56822,
4534.000,6.52713,
4533.000,6.48608,
4532.000,6.44566,
4531.000,6.40578,
4530.000,6.36559,
4529.000,6.32454,
4528.000,6.28277,
4527.000,6.24055,
4526.000,6.1979,
4525.000,6.15487,
4524.000,6.11171,
4523.000,6.06857,
4522.000,6.02546,
4521.000,5.98258,
4520.000,5.9402,
4519.000,5.89824,
4518.000,5.85649,
4517.000,5.81519,
4516.000,5.77484,
4515.000,5.73518,
4514.000,5.6952,
4513.000,5.65418,
4512.000,5.61237,
4511.000,5.57052,
4510.000,5.5291,
4509.000,5.48813,
4508.000,5.4472,
4507.000,5.40569,
4506.000,5.36336,
4505.000,5.32109,
4504.000,5.28035,
4503.000,5.24179,
4502.000,5.20458,
4501.000,5.16738,
4500.000,5.12948,
4499.000,5.09093,
4498.000,5.0521,
4497.000,5.01319,
4496.000,4.97404,
4495.000,4.93424,
4494.000,4.89384,
4493.000,4.85377,
4492.000,4.81536,
4491.000,4.7791,
4490.000,4.74415,
4489.000,4.70923,
4488.000,4.67359,
4487.000,4.6371,
4486.000,4.59992,
4485.000,4.56234,
4484.000,4.52468,
4483.000,4.48718,
4482.000,4.44995,
4481.000,4.41329,
4480.000,4.37758,
4479.000,4.34285,
4478.000,4.30862,
4477.000,4.27433,
4476.000,4.23985,
4475.000,4.20549,
4474.000,4.17161,
4473.000,4.13823,
4472.000,4.10497,
4471.000,4.0714,
4470.000,4.03747,
4469.000,4.00356,
4468.000,3.96993,
4467.000,3.93631,
4466.000,3.90226,
4465.000,3.86782,
4464.000,3.83348,
4463.000,3.79948,
4462.000,3.7656,
4461.000,3.73158,
4460.000,3.69774,
4459.000,3.66476,
4458.000,3.63302,
4457.000,3.6022,
4456.000,3.57131,
4455.000,3.53943,
4454.000,3.50654,
4453.000,3.47375,
4452.000,3.4423,
4451.000,3.41248,
4450.000,3.38353,
4449.000,3.35433,
4448.000,3.32407,
4447.000,3.29239,
4446.000,3.25949,
4445.000,3.22611,
4444.000,3.19329,
4443.000,3.16174,
4442.000,3.13159,
4441.000,3.10247,
4440.000,3.07377,
4439.000,3.04477,
4438.000,3.01491,
4437.000,2.9841,
4436.000,2.95283,
4435.000,2.92192,
4434.000,2.89209,
4433.000,2.86367,
4432.000,2.8364,
4431.000,2.80943,
4430.000,2.78175,
4429.000,2.75285,
4428.000,2.72308,
4427.000,2.69334,
4426.000,2.66459,
4425.000,2.63725,
4424.000,2.61092,
4423.000,2.58461,
4422.000,2.55754,
4421.000,2.52982,
4420.000,2.50222,
4419.000,2.47542,
4418.000,2.44942,
4417.000,2.42379,
4416.000,2.39823,
4415.000,2.37279,
4414.000,2.34759,
4413.000,2.32245,
4412.000,2.2968,
4411.000,2.27022,
4410.000,2.24305,
4409.000,2.21634,
4408.000,2.19102,
4407.000,2.16706,
4406.000,2.14358,
4405.000,2.11976,
4404.000,2.09558,
4403.000,2.07156,
4402.000,2.04817,
4401.000,2.0253,
4400.000,2.00228,
4399.000,1.97851,
4398.000,1.95415,
4397.000,1.9301,
4396.000,1.90727,
4395.000,1.88571,
4394.000,1.86466,
4393.000,1.84328,
4392.000,1.82129,
4391.000,1.79898,
4390.000,1.77699,
4389.000,1.7559,
4388.000,1.73582,
4387.000,1.71621,
4386.000,1.69625,
4385.000,1.67562,
4384.000,1.65477,
4383.000,1.63446,
4382.000,1.61514,
4381.000,1.59657,
4380.000,1.57817,
4379.000,1.55951,
4378.000,1.5407,
4377.000,1.52218,
4376.000,1.50416,
4375.000,1.48631,
4374.000,1.46825,
4373.000,1.45015,
4372.000,1.43265,
4371.000,1.4162,
4370.000,1.40059,
4369.000,1.38533,
4368.000,1.37013,
4367.000,1.35503,
4366.000,1.3402,
4365.000,1.32559,
4364.000,1.31083,
4363.000,1.29551,
4362.000,1.27959,
4361.000,1.2637,
4360.000,1.24868,
4359.000,1.23494,
4358.000,1.2223,
4357.000,1.21039,
4356.000,1.19881,
4355.000,1.18699,
4354.000,1.17431,
4353.000,1.16061,
4352.000,1.1466,
4351.000,1.13336,
4350.000,1.1216,
4349.000,1.11112,
4348.000,1.10109,
4347.000,1.09062,
4346.000,1.07936,
4345.000,1.06778,
4344.000,1.05659,
4343.000,1.04604,
4342.000,1.03562,
4341.000,1.02478,
4340.000,1.01352,
4339.000,1.00242,
4338.000,0.99204,
4337.000,0.982594,
4336.000,0.97383,
4335.000,0.965167,
4334.000,0.956061,
4333.000,0.946418,
4332.000,0.936577,
4331.000,0.926814,
4330.000,0.917051,
4329.000,0.907217,
4328.000,0.897622,
4327.000,0.888674,
4326.000,0.880345,
4325.000,0.87224,
4324.000,0.864171,
4323.000,0.85639,
4322.000,0.849247,
4321.000,0.842753,
4320.000,0.836522,
4319.000,0.829978,
4318.000,0.822685,
4317.000,0.81472,
4316.000,0.806765,
4315.000,0.799639,
4314.000,0.793623,
4313.000,0.788263,
4312.000,0.782781,
4311.000,0.776616,
4310.000,0.769728,
4309.000,0.762648,
4308.000,0.75619,
4307.000,0.750803,
4306.000,0.746144,
4305.000,0.74142,
4304.000,0.736161,
4303.000,0.73057,
4302.000,0.725106,
4301.000,0.720006,
4300.000,0.715245,
4299.000,0.710734,
4298.000,0.70641,
4297.000,0.702242,
4296.000,0.698294,
4295.000,0.694667,
4294.000,0.691272,
4293.000,0.68775,
4292.000,0.683741,
4291.000,0.679223,
4290.000,0.674521,
4289.000,0.670034,
4288.000,0.666004,
4287.000,0.662462,
4286.000,0.659312,
4285.000,0.65645,
4284.000,0.653762,
4283.000,0.651023,
4282.000,0.647912,
4281.000,0.644251,
4280.000,0.640252,
4279.000,0.636406,
4278.000,0.633026,
4277.000,0.629966,
4276.000,0.626859,
4275.000,0.623519,
4274.000,0.620112,
4273.000,0.61701,
4272.000,0.614577,
4271.000,0.613041,
4270.000,0.612343,
4269.000,0.612043,
4268.000,0.611507,
4267.000,0.610313,
4266.000,0.608508,
4265.000,0.606451,
4264.000,0.604416,
4263.000,0.602354,
4262.000,0.600028,
4261.000,0.597319,
4260.000,0.594346,
4259.000,0.591322,
4258.000,0.58839,
4257.000,0.585675,
4256.000,0.583392,
4255.000,0.581768,
4254.000,0.580788,
4253.000,0.580093,
4252.000,0.579182,
4251.000,0.577764,
4250.000,0.575957,
4249.000,0.574214,
4248.000,0.573052,
4247.000,0.572689,
4246.000,0.572806,
4245.000,0.572681,
4244.000,0.571689,
4243.000,0.569767,
4242.000,0.567445,
4241.000,0.5654,
4240.000,0.56397,
4239.000,0.563041,
4238.000,0.56229,
4237.000,0.561431,
4236.000,0.560333,
4235.000,0.559034,
4234.000,0.557763,
4233.000,0.556806,
4232.000,0.556263,
4231.000,0.555965,
4230.000,0.555697,
4229.000,0.555419,
4228.000,0.555114,
4227.000,0.554499,
4226.000,0.553133,
4225.000,0.550937,
4224.000,0.548448,
4223.000,0.546409,
4222.000,0.54515,
4221.000,0.544478,
4220.000,0.544115,
4219.000,0.544037,
4218.000,0.544388,
4217.000,0.545151,
4216.000,0.546044,
4215.000,0.546771,
4214.000,0.547308,
4213.000,0.547818,
4212.000,0.548352,
4211.000,0.548727,
4210.000,0.548798,
4209.000,0.548724,
4208.000,0.548785,
4207.000,0.548984,
4206.000,0.549008,
4205.000,0.548661,
4204.000,0.548155,
4203.000,0.547856,
4202.000,0.547835,
4201.000,0.547843,
4200.000,0.547758,
4199.000,0.547856,
4198.000,0.548546,
4197.000,0.549845,
4196.000,0.551241,
4195.000,0.552109,
4194.000,0.552285,
4193.000,0.55219,
4192.000,0.552401,
4191.000,0.553155,
4190.000,0.554272,
4189.000,0.555417,
4188.000,0.556305,
4187.000,0.556771,
4186.000,0.556886,
4185.000,0.556993,
4184.000,0.557448,
4183.000,0.558282,
4182.000,0.559222,
4181.000,0.560061,
4180.000,0.560865,
4179.000,0.561725,
4178.000,0.562526,
4177.000,0.563194,
4176.000,0.564046,
4175.000,0.565599,
4174.000,0.567907,
4173.000,0.570307,
4172.000,0.57197,
4171.000,0.572729,
4170.000,0.573249,
4169.000,0.574371,
4168.000,0.576298,
4167.000,0.578463,
4166.000,0.580205,
4165.000,0.581466,
4164.000,0.582827,
4163.000,0.584883,
4162.000,0.587698,
4161.000,0.5908,
4160.000,0.593595,
4159.000,0.59582,
4158.000,0.597708,
4157.000,0.599772,
4156.000,0.602324,
4155.000,0.605124,
4154.000,0.607575,
4153.000,0.60932,
4152.000,0.610612,
4151.000,0.612071,
4150.000,0.614164,
4149.000,0.61693,
4148.000,0.620038,
4147.000,0.622989,
4146.000,0.625357,
4145.000,0.627075,
4144.000,0.628555,
4143.000,0.630419,
4142.000,0.633024,
4141.000,0.636189,
4140.000,0.639416,
4139.000,0.642364,
4138.000,0.64511,
4137.000,0.648019,
4136.000,0.651334,
4135.000,0.654934,
4134.000,0.658495,
4133.000,0.66189,
4132.000,0.665387,
4131.000,0.669487,
4130.000,0.67454,
4129.000,0.68042,
4128.000,0.686432,
4127.000,0.691612,
4126.000,0.695338,
4125.000,0.697826,
4124.000,0.70002,
4123.000,0.702934,
4122.000,0.707036,
4121.000,0.712092,
4120.000,0.717401,
4119.000,0.722197,
4118.000,0.72613,
4117.000,0.72959,
4116.000,0.733477,
4115.000,0.738501,
4114.000,0.74468,
4113.000,0.751536,
4112.000,0.758598,
4111.000,0.765602,
4110.000,0.772333,
4109.000,0.778602,
4108.000,0.784482,
4107.000,0.790353,
4106.000,0.79659,
4105.000,0.803243,
4104.000,0.81006,
4103.000,0.816764,
4102.000,0.823252,
4101.000,0.829655,
4100.000,0.836375,
4099.000,0.844013,
4098.000,0.853016,
4097.000,0.863179,
4096.000,0.873515,
4095.000,0.882837,
4094.000,0.890592,
4093.000,0.897191,
4092.000,0.903562,
4091.000,0.910498,
4090.000,0.918483,
4089.000,0.927847,
4088.000,0.938728,
4087.000,0.950726,
4086.000,0.962838,
4085.000,0.973996,
4084.000,0.983704,
4083.000,0.992181,
4082.000,1.00003,
4081.000,1.00793,
4080.000,1.01655,
4079.000,1.02636,
4078.000,1.03744,
4077.000,1.04948,
4076.000,1.06214,
4075.000,1.07521,
4074.000,1.08856,
4073.000,1.1019,
4072.000,1.11485,
4071.000,1.12737,
4070.000,1.13991,
4069.000,1.15313,
4068.000,1.16733,
4067.000,1.18233,
4066.000,1.19768,
4065.000,1.21301,
4064.000,1.2282,
4063.000,1.24336,
4062.000,1.25877,
4061.000,1.27457,
4060.000,1.29062,
4059.000,1.3065,
4058.000,1.32198,
4057.000,1.33724,
4056.000,1.35273,
4055.000,1.36884,
4054.000,1.38586,
4053.000,1.4041,
4052.000,1.42366,
4051.000,1.4441,
4050.000,1.46453,
4049.000,1.48429,
4048.000,1.50335,
4047.000,1.52217,
4046.000,1.541,
4045.000,1.55981,
4044.000,1.57874,
4043.000,1.59832,
4042.000,1.6191,
4041.000,1.64105,
4040.000,1.66349,
4039.000,1.6858,
4038.000,1.7079,
4037.000,1.73018,
4036.000,1.75275,
4035.000,1.77527,
4034.000,1.79735,
4033.000,1.81917,
4032.000,1.84148,
4031.000,1.86497,
4030.000,1.88969,
4029.000,1.91506,
4028.000,1.9403,
4027.000,1.96505,
4026.000,1.98948,
4025.000,2.01421,
4024.000,2.03974,
4023.000,2.06609,
4022.000,2.09282,
4021.000,2.1195,
4020.000,2.146,
4019.000,2.17257,
4018.000,2.19946,
4017.000,2.22674,
4016.000,2.25431,
4015.000,2.28205,
4014.000,2.30997,
4013.000,2.33821,
4012.000,2.36694,
4011.000,2.39635,
4010.000,2.42655,
4009.000,2.45755,
4008.000,2.48913,
4007.000,2.52094,
4006.000,2.5526,
4005.000,2.5838,
4004.000,2.61441,
4003.000,2.64452,
4002.000,2.67457,
4001.000,2.70534,
4000.000,2.73756,
3999.000,2.77137,
3998.000,2.80627,
3997.000,2.84152,
3996.000,2.8768,
3995.000,2.9123,
3994.000,2.94831,
3993.000,2.98491,
3992.000,3.02189,
3991.000,3.05891,
3990.000,3.09566,
3989.000,3.132,
3988.000,3.1681,
3987.000,3.20432,
3986.000,3.24101,
3985.000,3.2782,
3984.000,3.31561,
3983.000,3.35294,
3982.000,3.39009,
3981.000,3.42712,
3980.000,3.46424,
3979.000,3.50169,
3978.000,3.53968,
3977.000,3.57826,
3976.000,3.61725,
3975.000,3.65642,
3974.000,3.69566,
3973.000,3.73505,
3972.000,3.77466,
3971.000,3.81447,
3970.000,3.8544,
3969.000,3.89447,
3968.000,3.93486,
3967.000,3.97571,
3966.000,4.01687,
3965.000,4.05779,
3964.000,4.09778,
3963.000,4.13646,
3962.000,4.17415,
3961.000,4.21175,
3960.000,4.25004,
3959.000,4.28888,
3958.000,4.32729,
3957.000,4.3644,
3956.000,4.40028,
3955.000,4.43563,
3954.000,4.47096,
3953.000,4.50636,
3952.000,4.54208,
3951.000,4.57886,
3950.000,4.61712,
3949.000,4.65619,
3948.000,4.69462,
3947.000,4.73132,
3946.000,4.76642,
3945.000,4.80094,
3944.000,4.83584,
3943.000,4.87143,
3942.000,4.90714,
3941.000,4.94189,
3940.000,4.97469,
3939.000,5.00513,
3938.000,5.03362,
3937.000,5.061,
3936.000,5.08784,
3935.000,5.11411,
3934.000,5.1395,
3933.000,5.16411,
3932.000,5.18841,
3931.000,5.2125,
3930.000,5.23547,
3929.000,5.25578,
3928.000,5.27253,
3927.000,5.2862,
3926.000,5.29828,
3925.000,5.31013,
3924.000,5.32213,
3923.000,5.33345,
3922.000,5.34246,
3921.000,5.34753,
3920.000,5.34832,
3919.000,5.34616,
3918.000,5.34297,
3917.000,5.33983,
3916.000,5.33643,
3915.000,5.33153,
3914.000,5.32375,
3913.000,5.31236,
3912.000,5.29787,
3911.000,5.28149,
3910.000,5.26403,
3909.000,5.24518,
3908.000,5.224,
3907.000,5.20015,
3906.000,5.17438,
3905.000,5.14824,
3904.000,5.12315,
3903.000,5.09926,
3902.000,5.07521,
3901.000,5.04923,
3900.000,5.02113,
3899.000,4.99264,
3898.000,4.96525,
3897.000,4.93805,
3896.000,4.90827,
3895.000,4.87382,
3894.000,4.83503,
3893.000,4.79444,
3892.000,4.75561,
3891.000,4.72115,
3890.000,4.69021,
3889.000,4.65853,
3888.000,4.62216,
3887.000,4.58137,
3886.000,4.54059,
3885.000,4.50402,
3884.000,4.47141,
3883.000,4.43883,
3882.000,4.40331,
3881.000,4.36576,
3880.000,4.32958,
3879.000,4.29639,
3878.000,4.26381,
3877.000,4.22827,
3876.000,4.18911,
3875.000,4.14948,
3874.000,4.1125,
3873.000,4.07797,
3872.000,4.04361,
3871.000,4.00829,
3870.000,3.97345,
3869.000,3.94107,
3868.000,3.91059,
3867.000,3.87882,
3866.000,3.84349,
3865.000,3.80591,
3864.000,3.76946,
3863.000,3.73602,
3862.000,3.70484,
3861.000,3.67411,
3860.000,3.64254,
3859.000,3.60945,
3858.000,3.57416,
3857.000,3.53637,
3856.000,3.49687,
3855.000,3.45803,
3854.000,3.42327,
3853.000,3.39479,
3852.000,3.37074,
3851.000,3.3467,
3850.000,3.31976,
3849.000,3.28988,
3848.000,3.25916,
3847.000,3.22902,
3846.000,3.19916,
3845.000,3.16935,
3844.000,3.13983,
3843.000,3.11076,
3842.000,3.08179,
3841.000,3.05253,
3840.000,3.02319,
3839.000,2.99444,
3838.000,2.96666,
3837.000,2.93939,
3836.000,2.91138,
3835.000,2.88157,
3834.000,2.85016,
3833.000,2.8185,
3832.000,2.78796,
3831.000,2.759,
3830.000,2.73113,
3829.000,2.70364,
3828.000,2.67605,
3827.000,2.64833,
3826.000,2.62062,
3825.000,2.59308,
3824.000,2.56587,
3823.000,2.53889,
3822.000,2.51162,
3821.000,2.48374,
3820.000,2.45563,
3819.000,2.42808,
3818.000,2.40118,
3817.000,2.37403,
3816.000,2.34627,
3815.000,2.31863,
3814.000,2.29172,
3813.000,2.26538,
3812.000,2.2392,
3811.000,2.21312,
3810.000,2.18744,
3809.000,2.16235,
3808.000,2.13792,
3807.000,2.11397,
3806.000,2.08995,
3805.000,2.0657,
3804.000,2.04176,
3803.000,2.01837,
3802.000,1.99475,
3801.000,1.9699,
3800.000,1.94397,
3799.000,1.91819,
3798.000,1.8931,
3797.000,1.86844,
3796.000,1.84429,
3795.000,1.82073,
3794.000,1.79753,
3793.000,1.77455,
3792.000,1.75205,
3791.000,1.73041,
3790.000,1.70941,
3789.000,1.68831,
3788.000,1.66676,
3787.000,1.64517,
3786.000,1.62403,
3785.000,1.60333,
3784.000,1.58277,
3783.000,1.56216,
3782.000,1.54147,
3781.000,1.52073,
3780.000,1.50001,
3779.000,1.47944,
3778.000,1.45895,
3777.000,1.43837,
3776.000,1.41763,
3775.000,1.39705,
3774.000,1.37724,
3773.000,1.35862,
3772.000,1.34096,
3771.000,1.32337,
3770.000,1.30493,
3769.000,1.28562,
3768.000,1.26636,
3767.000,1.248,
3766.000,1.2303,
3765.000,1.21256,
3764.000,1.19469,
3763.000,1.17725,
3762.000,1.16061,
3761.000,1.14462,
3760.000,1.12894,
3759.000,1.1134,
3758.000,1.09787,
3757.000,1.08225,
3756.000,1.06665,
3755.000,1.0514,
3754.000,1.03663,
3753.000,1.02201,
3752.000,1.00687,
3751.000,0.990584,
3750.000,0.973064,
3749.000,0.95524,
3748.000,0.938818,
3747.000,0.92503,
3746.000,0.91355,
3745.000,0.902314,
3744.000,0.888873,
3743.000,0.872866,
3742.000,0.856384,
3741.000,0.841793,
3740.000,0.83025,
3739.000,0.821331,
3738.000,0.81324,
3737.000,0.804059,
3736.000,0.792874,
3735.000,0.779936,
3734.000,0.766085,
3733.000,0.752082,
3732.000,0.738473,
3731.000,0.725885,
3730.000,0.715038,
3729.000,0.706153,
3728.000,0.698596,
3727.000,0.691211,
3726.000,0.682993,
3725.000,0.673688,
3724.000,0.663738,
3723.000,0.653736,
3722.000,0.644116,
3721.000,0.635141,
3720.000,0.626787,
3719.000,0.618646,
3718.000,0.6103,
3717.000,0.601918,
3716.000,0.594268,
3715.000,0.587962,
3714.000,0.582739,
3713.000,0.577567,
3712.000,0.57136,
3711.000,0.563721,
3710.000,0.555168,
3709.000,0.546731,
3708.000,0.539183,
3707.000,0.532588,
3706.000,0.526567,
3705.000,0.520876,
3704.000,0.515628,
3703.000,0.510939,
3702.000,0.506485,
3701.000,0.50165,
3700.000,0.496151,
3699.000,0.490249,
3698.000,0.484337,
3697.000,0.478634,
3696.000,0.47325,
3695.000,0.468239,
3694.000,0.463503,
3693.000,0.458811,
3692.000,0.45406,
3691.000,0.449427,
3690.000,0.445145,
3689.000,0.441121,
3688.000,0.436877,
3687.000,0.432008,
3686.000,0.426661,
3685.000,0.421506,
3684.000,0.417219,
3683.000,0.413924,
3682.000,0.411209,
3681.000,0.408655,
3680.000,0.406139,
3679.000,0.403724,
3678.000,0.401449,
3677.000,0.399221,
3676.000,0.396749,
3675.000,0.393637,
3674.000,0.389822,
3673.000,0.385843,
3672.000,0.382428,
3671.000,0.379923,
3670.000,0.377995,
3669.000,0.375799,
3668.000,0.372799,
3667.000,0.369237,
3666.000,0.365747,
3665.000,0.362876,
3664.000,0.360784,
3663.000,0.359204,
3662.000,0.357766,
3661.000,0.356276,
3660.000,0.354649,
3659.000,0.352761,
3658.000,0.350526,
3657.000,0.348096,
3656.000,0.345796,
3655.000,0.343789,
3654.000,0.342006,
3653.000,0.340458,
3652.000,0.339345,
3651.000,0.338679,
3650.000,0.337947,
3649.000,0.336455,
3648.000,0.334039,
3647.000,0.331248,
3646.000,0.328793,
3645.000,0.327052,
3644.000,0.325975,
3643.000,0.325126,
3642.000,0.323967,
3641.000,0.322341,
3640.000,0.320642,
3639.000,0.319418,
3638.000,0.318861,
3637.000,0.318687,
3636.000,0.318387,
3635.000,0.317588,
3634.000,0.316294,
3633.000,0.31489,
3632.000,0.313784,
3631.000,0.312995,
3630.000,0.312123,
3629.000,0.310724,
3628.000,0.308723,
3627.000,0.306457,
3626.000,0.304414,
3625.000,0.30299,
3624.000,0.302344,
3623.000,0.302207,
3622.000,0.302012,
3621.000,0.301441,
3620.000,0.300617,
3619.000,0.299752,
3618.000,0.298904,
3617.000,0.298175,
3616.000,0.29779,
3615.000,0.29773,
3614.000,0.297522,
3613.000,0.296673,
3612.000,0.295285,
3611.000,0.294011,
3610.000,0.293289,
3609.000,0.292794,
3608.000,0.291757,
3607.000,0.289797,
3606.000,0.287418,
3605.000,0.285549,
3604.000,0.28467,
3603.000,0.284505,
3602.000,0.284527,
3601.000,0.284589,
3600.000,0.284892,
3599.000,0.285454,
3598.000,0.28595,
3597.000,0.286089,
3596.000,0.285839,
3595.000,0.285245,
3594.000,0.284344,
3593.000,0.283396,
3592.000,0.282848,
3591.000,0.282888,
3590.000,0.283259,
3589.000,0.283585,
3588.000,0.283596,
3587.000,0.283004,
3586.000,0.281593,
3585.000,0.279693,
3584.000,0.27817,
3583.000,0.27767,
3582.000,0.278054,
3581.000,0.278713,
3580.000,0.279254,
3579.000,0.279637,
3578.000,0.27986,
3577.000,0.279934,
3576.000,0.280056,
3575.000,0.280416,
3574.000,0.2808,
3573.000,0.280757,
3572.000,0.280219,
3571.000,0.279692,
3570.000,0.279738,
3569.000,0.280423,
3568.000,0.281293,
3567.000,0.281783,
3566.000,0.28169,
3565.000,0.281322,
3564.000,0.281138,
3563.000,0.281198,
3562.000,0.281131,
3561.000,0.280685,
3560.000,0.280158,
3559.000,0.280061,
3558.000,0.280428,
3557.000,0.280787,
3556.000,0.280873,
3555.000,0.281051,
3554.000,0.281816,
3553.000,0.283072,
3552.000,0.284138,
3551.000,0.28439,
3550.000,0.283778,
3549.000,0.282778,
3548.000,0.282007,
3547.000,0.281844,
3546.000,0.282297,
3545.000,0.283134,
3544.000,0.284103,
3543.000,0.285021,
3542.000,0.285767,
3541.000,0.286338,
3540.000,0.286857,
3539.000,0.287365,
3538.000,0.287671,
3537.000,0.287594,
3536.000,0.287364,
3535.000,0.287513,
3534.000,0.288256,
3533.000,0.28921,
3532.000,0.289875,
3531.000,0.290179,
3530.000,0.290409,
3529.000,0.290761,
3528.000,0.291218,
3527.000,0.291741,
3526.000,0.292297,
3525.000,0.292727,
3524.000,0.292894,
3523.000,0.292977,
3522.000,0.2934,
3521.000,0.294398,
3520.000,0.295874,
3519.000,0.297705,
3518.000,0.299851,
3517.000,0.302021,
3516.000,0.303565,
3515.000,0.304061,
3514.000,0.303878,
3513.000,0.303806,
3512.000,0.304154,
3511.000,0.304536,
3510.000,0.304584,
3509.000,0.304544,
3508.000,0.304994,
3507.000,0.306207,
3506.000,0.307996,
3505.000,0.310001,
3504.000,0.311855,
3503.000,0.313174,
3502.000,0.31373,
3501.000,0.313728,
3500.000,0.313747,
3499.000,0.314282,
3498.000,0.315332,
3497.000,0.316485,
3496.000,0.317414,
3495.000,0.318275,
3494.000,0.319564,
3493.000,0.321536,
3492.000,0.323875,
3491.000,0.326024,
3490.000,0.327771,
3489.000,0.329354,
3488.000,0.331047,
3487.000,0.332885,
3486.000,0.334838,
3485.000,0.336965,
3484.000,0.339243,
3483.000,0.34146,
3482.000,0.343509,
3481.000,0.345648,
3480.000,0.348173,
3479.000,0.350894,
3478.000,0.353209,
3477.000,0.354753,
3476.000,0.355804,
3475.000,0.356989,
3474.000,0.358705,
3473.000,0.360889,
3472.000,0.363292,
3471.000,0.365885,
3470.000,0.368896,
3469.000,0.37238,
3468.000,0.375839,
3467.000,0.378515,
3466.000,0.380179,
3465.000,0.381484,
3464.000,0.383383,
3463.000,0.386245,
3462.000,0.389664,
3461.000,0.392981,
3460.000,0.395914,
3459.000,0.398748,
3458.000,0.402021,
3457.000,0.405925,
3456.000,0.409959,
3455.000,0.413369,
3454.000,0.416046,
3453.000,0.418771,
3452.000,0.422307,
3451.000,0.426442,
3450.000,0.430255,
3449.000,0.433217,
3448.000,0.43572,
3447.000,0.438552,
3446.000,0.442215,
3445.000,0.446795,
3444.000,0.452098,
3443.000,0.457657,
3442.000,0.46281,
3441.000,0.467104,
3440.000,0.470678,
3439.000,0.474221,
3438.000,0.47848,
3437.000,0.483724,
3436.000,0.489502,
3435.000,0.494949,
3434.000,0.499516,
3433.000,0.50349,
3432.000,0.507705,
3431.000,0.512733,
3430.000,0.518461,
3429.000,0.524426,
3428.000,0.530358,
3427.000,0.536232,
3426.000,0.542015,
3425.000,0.5476,
3424.000,0.553061,
3423.000,0.55878,
3422.000,0.565123,
3421.000,0.571964,
3420.000,0.57868,
3419.000,0.584771,
3418.000,0.590399,
3417.000,0.596085,
3416.000,0.601901,
3415.000,0.60729,
3414.000,0.611847,
3413.000,0.616011,
3412.000,0.620681,
3411.000,0.626288,
3410.000,0.632478,
3409.000,0.638624,
3408.000,0.644328,
3407.000,0.64946,
3406.000,0.654066,
3405.000,0.658413,
3404.000,0.66299,
3403.000,0.668319,
3402.000,0.674748,
3401.000,0.682393,
3400.000,0.691114,
3399.000,0.700544,
3398.000,0.710286,
3397.000,0.720109,
3396.000,0.729992,
3395.000,0.740079,
3394.000,0.750701,
3393.000,0.762272,
3392.000,0.774891,
3391.000,0.788014,
3390.000,0.800807,
3389.000,0.812907,
3388.000,0.824716,
3387.000,0.836878,
3386.000,0.849625,
3385.000,0.862733,
3384.000,0.876003,
3383.000,0.889594,
3382.000,0.903853,
3381.000,0.918921,
3380.000,0.934631,
3379.000,0.950728,
3378.000,0.967029,
3377.000,0.983249,
3376.000,0.998929,
3375.000,1.0139,
3374.000,1.02876,
3373.000,1.04443,
3372.000,1.06114,
3371.000,1.07817,
3370.000,1.0948,
3369.000,1.1113,
3368.000,1.1285,
3367.000,1.1467,
3366.000,1.16552,
3365.000,1.18453,
3364.000,1.20359,
3363.000,1.22261,
3362.000,1.24136,
3361.000,1.25984,
3360.000,1.27835,
3359.000,1.29728,
3358.000,1.31677,
3357.000,1.33672,
3356.000,1.35685,
3355.000,1.37681,
3354.000,1.3965,
3353.000,1.41627,
3352.000,1.4367,
3351.000,1.45788,
3350.000,1.47922,
3349.000,1.50008,
3348.000,1.52055,
3347.000,1.54147,
3346.000,1.56375,
3345.000,1.58745,
3344.000,1.61171,
3343.000,1.6354,
3342.000,1.65821,
3341.000,1.68092,
3340.000,1.70448,
3339.000,1.72898,
3338.000,1.75375,
3337.000,1.77822,
3336.000,1.80238,
3335.000,1.82651,
3334.000,1.85087,
3333.000,1.87574,
3332.000,1.90139,
3331.000,1.92768,
3330.000,1.95399,
3329.000,1.97991,
3328.000,2.00583,
3327.000,2.03253,
3326.000,2.06035,
3325.000,2.08879,
3324.000,2.11704,
3323.000,2.14463,
3322.000,2.17168,
3321.000,2.19871,
3320.000,2.2262,
3319.000,2.25417,
3318.000,2.2823,
3317.000,2.31022,
3316.000,2.33799,
3315.000,2.36595,
3314.000,2.39438,
3313.000,2.42318,
3312.000,2.45197,
3311.000,2.48054,
3310.000,2.50902,
3309.000,2.53768,
3308.000,2.56638,
3307.000,2.59457,
3306.000,2.62175,
3305.000,2.64794,
3304.000,2.67362,
3303.000,2.69917,
3302.000,2.72477,
3301.000,2.75056,
3300.000,2.77663,
3299.000,2.80272,
3298.000,2.82819,
3297.000,2.85257,
3296.000,2.87578,
3295.000,2.89812,
3294.000,2.91977,
3293.000,2.94076,
3292.000,2.96096,
3291.000,2.98017,
3290.000,2.99825,
3289.000,3.01519,
3288.000,3.03109,
3287.000,3.04586,
3286.000,3.05928,
3285.000,3.07141,
3284.000,3.08268,
3283.000,3.09349,
3282.000,3.10363,
3281.000,3.11248,
3280.000,3.11963,
3279.000,3.12514,
3278.000,3.12911,
3277.000,3.13139,
3276.000,3.13177,
3275.000,3.13044,
3274.000,3.12802,
3273.000,3.12508,
3272.000,3.12167,
3271.000,3.1173,
3270.000,3.11157,
3269.000,3.10446,
3268.000,3.09606,
3267.000,3.08632,
3266.000,3.07516,
3265.000,3.06284,
3264.000,3.04978,
3263.000,3.03609,
3262.000,3.0215,
3261.000,3.00588,
3260.000,2.98956,
3259.000,2.97283,
3258.000,2.95553,
3257.000,2.93734,
3256.000,2.91836,
3255.000,2.899,
3254.000,2.87944,
3253.000,2.85954,
3252.000,2.83914,
3251.000,2.81825,
3250.000,2.79696,
3249.000,2.77543,
3248.000,2.75392,
3247.000,2.73255,
3246.000,2.71107,
3245.000,2.68924,
3244.000,2.66725,
3243.000,2.64554,
3242.000,2.62414,
3241.000,2.6025,
3240.000,2.58017,
3239.000,2.55719,
3238.000,2.53402,
3237.000,2.51118,
3236.000,2.48902,
3235.000,2.46752,
3234.000,2.44609,
3233.000,2.42399,
3232.000,2.4011,
3231.000,2.37807,
3230.000,2.35556,
3229.000,2.33357,
3228.000,2.31152,
3227.000,2.28901,
3226.000,2.26613,
3225.000,2.24332,
3224.000,2.221,
3223.000,2.1993,
3222.000,2.17797,
3221.000,2.15657,
3220.000,2.13496,
3219.000,2.11333,
3218.000,2.09197,
3217.000,2.07086,
3216.000,2.0498,
3215.000,2.02869,
3214.000,2.00754,
3213.000,1.98642,
3212.000,1.96542,
3211.000,1.94455,
3210.000,1.92356,
3209.000,1.902,
3208.000,1.87976,
3207.000,1.85734,
3206.000,1.83557,
3205.000,1.81501,
3204.000,1.79555,
3203.000,1.77664,
3202.000,1.75764,
3201.000,1.73814,
3200.000,1.71805,
3199.000,1.69765,
3198.000,1.6772,
3197.000,1.65674,
3196.000,1.63604,
3195.000,1.61493,
3194.000,1.5936,
3193.000,1.57256,
3192.000,1.55228,
3191.000,1.53287,
3190.000,1.51403,
3189.000,1.49533,
3188.000,1.47649,
3187.000,1.45749,
3186.000,1.43851,
3185.000,1.41962,
3184.000,1.40055,
3183.000,1.38082,
3182.000,1.3604,
3181.000,1.34007,
3180.000,1.32089,
3179.000,1.30311,
3178.000,1.28587,
3177.000,1.26817,
3176.000,1.24996,
3175.000,1.23186,
3174.000,1.21417,
3173.000,1.1966,
3172.000,1.17879,
3171.000,1.16089,
3170.000,1.14334,
3169.000,1.12639,
3168.000,1.11006,
3167.000,1.09423,
3166.000,1.07866,
3165.000,1.06293,
3164.000,1.04665,
3163.000,1.02972,
3162.000,1.0124,
3161.000,0.995298,
3160.000,0.979059,
3159.000,0.963966,
3158.000,0.949567,
3157.000,0.934943,
3156.000,0.919517,
3155.000,0.903625,
3154.000,0.888122,
3153.000,0.873467,
3152.000,0.859223,
3151.000,0.844539,
3150.000,0.82909,
3149.000,0.81352,
3148.000,0.798876,
3147.000,0.785611,
3146.000,0.773186,
3145.000,0.760708,
3144.000,0.747797,
3143.000,0.734748,
3142.000,0.721975,
3141.000,0.709585,
3140.000,0.697512,
3139.000,0.685802,
3138.000,0.674569,
3137.000,0.663738,
3136.000,0.652935,
3135.000,0.641688,
3134.000,0.62978,
3133.000,0.617518,
3132.000,0.605623,
3131.000,0.594651,
3130.000,0.584461,
3129.000,0.574351,
3128.000,0.563816,
3127.000,0.553096,
3126.000,0.542928,
3125.000,0.533867,
3124.000,0.525877,
3123.000,0.51842,
3122.000,0.510803,
3121.000,0.50255,
3120.000,0.49365,
3119.000,0.48449,
3118.000,0.47546,
3117.000,0.466645,
3116.000,0.457923,
3115.000,0.449323,
3114.000,0.441172,
3113.000,0.433851,
3112.000,0.427497,
3111.000,0.421898,
3110.000,0.416623,
3109.000,0.411263,
3108.000,0.405665,
3107.000,0.399981,
3106.000,0.394464,
3105.000,0.389166,
3104.000,0.383885,
3103.000,0.378397,
3102.000,0.372683,
3101.000,0.366937,
3100.000,0.361381,
3099.000,0.356124,
3098.000,0.351126,
3097.000,0.346274,
3096.000,0.341518,
3095.000,0.336937,
3094.000,0.332642,
3093.000,0.328593,
3092.000,0.324578,
3091.000,0.3204,
3090.000,0.31603,
3089.000,0.311584,
3088.000,0.307276,
3087.000,0.303423,
3086.000,0.300307,
3085.000,0.29784,
3084.000,0.295471,
3083.000,0.292628,
3082.000,0.289234,
3081.000,0.285647,
3080.000,0.282108,
3079.000,0.278518,
3078.000,0.274801,
3077.000,0.27121,
3076.000,0.268063,
3075.000,0.265323,
3074.000,0.262652,
3073.000,0.259813,
3072.000,0.256861,
3071.000,0.253989,
3070.000,0.251313,
3069.000,0.248797,
3068.000,0.246288,
3067.000,0.243654,
3066.000,0.240936,
3065.000,0.238308,
3064.000,0.235855,
3063.000,0.233518,
3062.000,0.231294,
3061.000,0.229345,
3060.000,0.227736,
3059.000,0.226226,
3058.000,0.224548,
3057.000,0.222794,
3056.000,0.221279,
3055.000,0.220002,
3054.000,0.218505,
3053.000,0.21635,
3052.000,0.213588,
3051.000,0.210722,
3050.000,0.208323,
3049.000,0.206708,
3048.000,0.205793,
3047.000,0.205148,
3046.000,0.204307,
3045.000,0.203083,
3044.000,0.201577,
3043.000,0.199923,
3042.000,0.198145,
3041.000,0.196254,
3040.000,0.194341,
3039.000,0.192575,
3038.000,0.191184,
3037.000,0.190366,
3036.000,0.190011,
3035.000,0.189565,
3034.000,0.188455,
3033.000,0.186732,
3032.000,0.185031,
3031.000,0.183831,
3030.000,0.182993,
3029.000,0.182163,
3028.000,0.181297,
3027.000,0.18049,
3026.000,0.179558,
3025.000,0.178193,
3024.000,0.176466,
3023.000,0.1748,
3022.000,0.173403,
3021.000,0.172069,
3020.000,0.170669,
3019.000,0.169537,
3018.000,0.169107,
3017.000,0.169299,
3016.000,0.169568,
3015.000,0.169525,
3014.000,0.169232,
3013.000,0.168807,
3012.000,0.168021,
3011.000,0.16655,
3010.000,0.164567,
3009.000,0.1628,
3008.000,0.161855,
3007.000,0.161583,
3006.000,0.161268,
3005.000,0.160427,
3004.000,0.159312,
3003.000,0.158597,
3002.000,0.158644,
3001.000,0.159115,
3000.000,0.159284,
2999.000,0.158708,
2998.000,0.157594,
2997.000,0.156534,
2996.000,0.155944,
2995.000,0.155821,
2994.000,0.155956,
2993.000,0.156164,
2992.000,0.156247,
2991.000,0.155953,
2990.000,0.155158,
2989.000,0.15403,
2988.000,0.152934,
2987.000,0.152225,
2986.000,0.152177,
2985.000,0.152875,
2984.000,0.153966,
2983.000,0.154667,
2982.000,0.154336,
2981.000,0.153081,
2980.000,0.151611,
2979.000,0.150424,
2978.000,0.149401,
2977.000,0.14822,
2976.000,0.146928,
2975.000,0.145895,
2974.000,0.145348,
2973.000,0.145128,
2972.000,0.144855,
2971.000,0.144219,
2970.000,0.143153,
2969.000,0.141736,
2968.000,0.13995,
2967.000,0.137563,
2966.000,0.134387,
2965.000,0.130606,
2964.000,0.126647,
2963.000,0.122684,
2962.000,0.118483,
2961.000,0.113892,
2960.000,0.10927,
2959.000,0.105221,
2958.000,0.101956,
2957.000,0.0991491,
2956.000,0.0963995,
2955.000,0.0937022,
2954.000,0.0913892,
2953.000,0.0896582,
2952.000,0.088242,
2951.000,0.0866169,
2950.000,0.0845441,
2949.000,0.0822657,
2948.000,0.0800642,
2947.000,0.0777909,
2946.000,0.0750903,
2945.000,0.072056,
2944.000,0.069336,
2943.000,0.0674243,
2942.000,0.0660716,
2941.000,0.0645954,
2940.000,0.0626683,
2939.000,0.0606837,
2938.000,0.0594174,
2937.000,0.0594354,
2936.000,0.0606574,
2935.000,0.062332,
2934.000,0.0635553,
2933.000,0.0640817,
2932.000,0.0646513,
2931.000,0.0663559,
2930.000,0.0696603,
2929.000,0.074149,
2928.000,0.0790552,
2927.000,0.0837433,
2926.000,0.0877582,
2925.000,0.0908842,
2924.000,0.0933782,
2923.000,0.0958977,
2922.000,0.0989402,
2921.000,0.102403,
2920.000,0.105778,
2919.000,0.108672,
2918.000,0.111054,
2917.000,0.113151,
2916.000,0.115244,
2915.000,0.117468,
2914.000,0.119616,
2913.000,0.121241,
2912.000,0.122119,
2911.000,0.122579,
2910.000,0.123118,
2909.000,0.123739,
2908.000,0.123927,
2907.000,0.123375,
2906.000,0.122491,
2905.000,0.121975,
2904.000,0.12211,
2903.000,0.122685,
2902.000,0.12344,
2901.000,0.124268,
2900.000,0.12506,
2899.000,0.125726,
2898.000,0.126404,
2897.000,0.127318,
2896.000,0.128348,
2895.000,0.129024,
2894.000,0.129113,
2893.000,0.128923,
2892.000,0.128825,
2891.000,0.128747,
2890.000,0.128402,
2889.000,0.12783,
2888.000,0.127359,
2887.000,0.12711,
2886.000,0.126906,
2885.000,0.126683,
2884.000,0.126632,
2883.000,0.126816,
2882.000,0.126902,
2881.000,0.126503,
2880.000,0.125691,
2879.000,0.125009,
2878.000,0.124888,
2877.000,0.125097,
2876.000,0.12484,
2875.000,0.123486,
2874.000,0.121212,
2873.000,0.118822,
2872.000,0.116911,
2871.000,0.115369,
2870.000,0.113744,
2869.000,0.111803,
2868.000,0.109527,
2867.000,0.10682,
2866.000,0.103631,
2865.000,0.100307,
2864.000,0.097479,
2863.000,0.0955982,
2862.000,0.0948064,
2861.000,0.0951604,
2860.000,0.0966002,
2859.000,0.0986959,
2858.000,0.100859,
2857.000,0.10293,
2856.000,0.105244,
2855.000,0.108047,
2854.000,0.11117,
2853.000,0.114333,
2852.000,0.117421,
2851.000,0.120302,
2850.000,0.122713,
2849.000,0.124533,
2848.000,0.125893,
2847.000,0.126845,
2846.000,0.127239,
2845.000,0.127125,
2844.000,0.126998,
2843.000,0.127306,
2842.000,0.127918,
2841.000,0.128402,
2840.000,0.128743,
2839.000,0.12939,
2838.000,0.13059,
2837.000,0.132023,
2836.000,0.133172,
2835.000,0.13383,
2834.000,0.134118,
2833.000,0.13422,
2832.000,0.134254,
2831.000,0.134354,
2830.000,0.134722,
2829.000,0.13551,
2828.000,0.13663,
2827.000,0.137746,
2826.000,0.138545,
2825.000,0.139005,
2824.000,0.139339,
2823.000,0.139679,
2822.000,0.139954,
2821.000,0.140108,
2820.000,0.140303,
2819.000,0.14087,
2818.000,0.142047,
2817.000,0.143734,
2816.000,0.145399,
2815.000,0.146369,
2814.000,0.146457,
2813.000,0.146301,
2812.000,0.146758,
2811.000,0.147934,
2810.000,0.149128,
2809.000,0.149796,
2808.000,0.150147,
2807.000,0.150591,
2806.000,0.151072,
2805.000,0.151386,
2804.000,0.151813,
2803.000,0.152874,
2802.000,0.154576,
2801.000,0.156387,
2800.000,0.15796,
2799.000,0.159358,
2798.000,0.160528,
2797.000,0.161101,
2796.000,0.160999,
2795.000,0.160852,
2794.000,0.161391,
2793.000,0.162604,
2792.000,0.163828,
2791.000,0.164657,
2790.000,0.165438,
2789.000,0.166788,
2788.000,0.168818,
2787.000,0.170996,
2786.000,0.172717,
2785.000,0.173869,
2784.000,0.17479,
2783.000,0.175813,
2782.000,0.177026,
2781.000,0.178445,
2780.000,0.180157,
2779.000,0.182103,
2778.000,0.183935,
2777.000,0.185356,
2776.000,0.186544,
2775.000,0.187968,
2774.000,0.189788,
2773.000,0.191711,
2772.000,0.193461,
2771.000,0.1951,
2770.000,0.196789,
2769.000,0.198486,
2768.000,0.200084,
2767.000,0.201667,
2766.000,0.203385,
2765.000,0.205205,
2764.000,0.206973,
2763.000,0.208669,
2762.000,0.210411,
2761.000,0.212274,
2760.000,0.214261,
2759.000,0.216397,
2758.000,0.218719,
2757.000,0.221133,
2756.000,0.223424,
2755.000,0.22545,
2754.000,0.227297,
2753.000,0.229233,
2752.000,0.231557,
2751.000,0.234429,
2750.000,0.237725,
2749.000,0.241107,
2748.000,0.244345,
2747.000,0.247583,
2746.000,0.251134,
2745.000,0.254982,
2744.000,0.258642,
2743.000,0.26165,
2742.000,0.264136,
2741.000,0.266723,
2740.000,0.269866,
2739.000,0.273441,
2738.000,0.277057,
2737.000,0.280605,
2736.000,0.284352,
2735.000,0.288519,
2734.000,0.292955,
2733.000,0.297286,
2732.000,0.3013,
2731.000,0.305102,
2730.000,0.308945,
2729.000,0.313027,
2728.000,0.317448,
2727.000,0.322235,
2726.000,0.327321,
2725.000,0.33253,
2724.000,0.337709,
2723.000,0.342931,
2722.000,0.348482,
2721.000,0.354544,
2720.000,0.360934,
2719.000,0.367261,
2718.000,0.373378,
2717.000,0.379579,
2716.000,0.386255,
2715.000,0.39343,
2714.000,0.400748,
2713.000,0.407896,
2712.000,0.414892,
2711.000,0.42196,
2710.000,0.42929,
2709.000,0.436969,
2708.000,0.445024,
2707.000,0.453418,
2706.000,0.462075,
2705.000,0.471022,
2704.000,0.480423,
2703.000,0.490352,
2702.000,0.500576,
2701.000,0.510659,
2700.000,0.520358,
2699.000,0.529851,
2698.000,0.539623,
2697.000,0.550109,
2696.000,0.561392,
2695.000,0.573187,
2694.000,0.585147,
2693.000,0.597217,
2692.000,0.609601,
2691.000,0.62234,
2690.000,0.635096,
2689.000,0.647456,
2688.000,0.659361,
2687.000,0.671069,
2686.000,0.68279,
2685.000,0.694536,
2684.000,0.706224,
2683.000,0.717702,
2682.000,0.728688,
2681.000,0.738972,
2680.000,0.748705,
2679.000,0.758249,
2678.000,0.767678,
2677.000,0.77666,
2676.000,0.785014,
2675.000,0.793204,
2674.000,0.802051,
2673.000,0.812038,
2672.000,0.82299,
2671.000,0.834358,
2670.000,0.845739,
2669.000,0.857213,
2668.000,0.869361,
2667.000,0.882975,
2666.000,0.898616,
2665.000,0.916439,
2664.000,0.93632,
2663.000,0.957938,
2662.000,0.980747,
2661.000,1.00399,
2660.000,1.02701,
2659.000,1.04958,
2658.000,1.07174,
2657.000,1.09358,
2656.000,1.11508,
2655.000,1.13612,
2654.000,1.15658,
2653.000,1.17648,
2652.000,1.19617,
2651.000,1.21622,
2650.000,1.23694,
2649.000,1.25808,
2648.000,1.27909,
2647.000,1.29978,
2646.000,1.32069,
2645.000,1.34279,
2644.000,1.36678,
2643.000,1.39255,
2642.000,1.41933,
2641.000,1.44653,
2640.000,1.47421,
2639.000,1.50285,
2638.000,1.53235,
2637.000,1.56193,
2636.000,1.59084,
2635.000,1.61901,
2634.000,1.64665,
2633.000,1.67363,
2632.000,1.69961,
2631.000,1.72466,
2630.000,1.7494,
2629.000,1.77423,
2628.000,1.79893,
2627.000,1.82281,
2626.000,1.84537,
2625.000,1.86662,
2624.000,1.8868,
2623.000,1.90591,
2622.000,1.92363,
2621.000,1.93975,
2620.000,1.95454,
2619.000,1.96842,
2618.000,1.98148,
2617.000,1.99345,
2616.000,2.00436,
2615.000,2.01466,
2614.000,2.02464,
2613.000,2.03412,
2612.000,2.04292,
2611.000,2.0513,
2610.000,2.05972,
2609.000,2.06837,
2608.000,2.07715,
2607.000,2.08598,
2606.000,2.0947,
2605.000,2.10293,
2604.000,2.11015,
2603.000,2.11597,
2602.000,2.12006,
2601.000,2.12222,
2600.000,2.12258,
2599.000,2.12147,
2598.000,2.11901,
2597.000,2.11497,
2596.000,2.1092,
2595.000,2.10196,
2594.000,2.09342,
2593.000,2.08323,
2592.000,2.07094,
2591.000,2.05665,
2590.000,2.04098,
2589.000,2.02451,
2588.000,2.00759,
2587.000,1.99057,
2586.000,1.97361,
2585.000,1.95648,
2584.000,1.93876,
2583.000,1.92044,
2582.000,1.90188,
2581.000,1.88328,
2580.000,1.86441,
2579.000,1.84503,
2578.000,1.82519,
2577.000,1.80512,
2576.000,1.78499,
2575.000,1.76488,
2574.000,1.7448,
2573.000,1.72463,
2572.000,1.70424,
2571.000,1.68369,
2570.000,1.66335,
2569.000,1.64359,
2568.000,1.62455,
2567.000,1.6061,
2566.000,1.58802,
2565.000,1.57004,
2564.000,1.55199,
2563.000,1.53384,
2562.000,1.51572,
2561.000,1.49772,
2560.000,1.47982,
2559.000,1.46187,
2558.000,1.44376,
2557.000,1.42543,
2556.000,1.40695,
2555.000,1.38851,
2554.000,1.37037,
2553.000,1.35257,
2552.000,1.3348,
2551.000,1.31668,
2550.000,1.29803,
2549.000,1.279,
2548.000,1.25993,
2547.000,1.24107,
2546.000,1.22261,
2545.000,1.20452,
2544.000,1.18652,
2543.000,1.16826,
2542.000,1.14964,
2541.000,1.13105,
2540.000,1.11301,
2539.000,1.09559,
2538.000,1.0784,
2537.000,1.06104,
2536.000,1.04365,
2535.000,1.02679,
2534.000,1.01088,
2533.000,0.995723,
2532.000,0.98066,
2531.000,0.965171,
2530.000,0.949356,
2529.000,0.933698,
2528.000,0.918473,
2527.000,0.903559,
2526.000,0.888813,
2525.000,0.874329,
2524.000,0.860144,
2523.000,0.845973,
2522.000,0.831533,
2521.000,0.816987,
2520.000,0.802771,
2519.000,0.789021,
2518.000,0.775457,
2517.000,0.761832,
2516.000,0.748249,
2515.000,0.735007,
2514.000,0.72233,
2513.000,0.710229,
2512.000,0.698398,
2511.000,0.686239,
2510.000,0.673309,
2509.000,0.659783,
2508.000,0.646263,
2507.000,0.633117,
2506.000,0.620271,
2505.000,0.607673,
2504.000,0.595565,
2503.000,0.584105,
2502.000,0.572996,
2501.000,0.561755,
2500.000,0.550217,
2499.000,0.53859,
2498.000,0.527127,
2497.000,0.515905,
2496.000,0.504858,
2495.000,0.493924,
2494.000,0.483188,
2493.000,0.472893,
2492.000,0.463194,
2491.000,0.453872,
2490.000,0.444541,
2489.000,0.43516,
2488.000,0.426127,
2487.000,0.417731,
2486.000,0.409702,
2485.000,0.401506,
2484.000,0.392922,
2483.000,0.384179,
2482.000,0.375645,
2481.000,0.367529,
2480.000,0.359849,
2479.000,0.352531,
2478.000,0.345532,
2477.000,0.338911,
2476.000,0.332685,
2475.000,0.326695,
2474.000,0.320719,
2473.000,0.314748,
2472.000,0.308966,
2471.000,0.303437,
2470.000,0.298008,
2469.000,0.292575,
2468.000,0.287197,
2467.000,0.281895,
2466.000,0.27655,
2465.000,0.271151,
2464.000,0.265941,
2463.000,0.26112,
2462.000,0.256573,
2461.000,0.252072,
2460.000,0.247632,
2459.000,0.243467,
2458.000,0.239642,
2457.000,0.235968,
2456.000,0.232193,
2455.000,0.228248,
2454.000,0.224318,
2453.000,0.220713,
2452.000,0.21758,
2451.000,0.214684,
2450.000,0.211561,
2449.000,0.207967,
2448.000,0.204108,
2447.000,0.200446,
2446.000,0.197388,
2445.000,0.195115,
2444.000,0.193462,
2443.000,0.191816,
2442.000,0.189393,
2441.000,0.18592,
2440.000,0.182013,
2439.000,0.178675,
2438.000,0.176391,
2437.000,0.174866,
2436.000,0.173522,
2435.000,0.172008,
2434.000,0.170225,
2433.000,0.168127,
2432.000,0.165766,
2431.000,0.163486,
2430.000,0.161792,
2429.000,0.160781,
2428.000,0.159801,
2427.000,0.157965,
2426.000,0.155143,
2425.000,0.152187,
2424.000,0.149972,
2423.000,0.148457,
2422.000,0.146951,
2421.000,0.145091,
2420.000,0.143144,
2419.000,0.141426,
2418.000,0.139927,
2417.000,0.138577,
2416.000,0.137461,
2415.000,0.136545,
2414.000,0.135534,
2413.000,0.134198,
2412.000,0.132609,
2411.000,0.130932,
2410.000,0.129245,
2409.000,0.127685,
2408.000,0.12648,
2407.000,0.125626,
2406.000,0.124807,
2405.000,0.123814,
2404.000,0.12277,
2403.000,0.121756,
2402.000,0.120578,
2401.000,0.119215,
2400.000,0.118134,
2399.000,0.1177,
2398.000,0.117524,
2397.000,0.116875,
2396.000,0.115663,
2395.000,0.114525,
2394.000,0.113925,
2393.000,0.113583,
2392.000,0.112922,
2391.000,0.111766,
2390.000,0.110408,
2389.000,0.109181,
2388.000,0.108137,
2387.000,0.107074,
2386.000,0.105791,
2385.000,0.104334,
2384.000,0.102941,
2383.000,0.101762,
2382.000,0.100675,
2381.000,0.099488,
2380.000,0.0981894,
2379.000,0.096945,
2378.000,0.0959628,
2377.000,0.0954365,
2376.000,0.0954333,
2375.000,0.0956509,
2374.000,0.0954815,
2373.000,0.0945892,
2372.000,0.0933184,
2371.000,0.0922845,
2370.000,0.0916356,
2369.000,0.0909994,
2368.000,0.0901283,
2367.000,0.0892314,
2366.000,0.0885814,
2365.000,0.0881906,
2364.000,0.0879954,
2363.000,0.0879953,
2362.000,0.0880618,
2361.000,0.0878833,
2360.000,0.0872221,
2359.000,0.0860845,
2358.000,0.0846499,
2357.000,0.0832091,
2356.000,0.0820857,
2355.000,0.0813915,
2354.000,0.0809199,
2353.000,0.0804736,
2352.000,0.0801678,
2351.000,0.0801773,
2350.000,0.0803374,
2349.000,0.0802574,
2348.000,0.0797659,
2347.000,0.0790905,
2346.000,0.0786195,
2345.000,0.0785837,
2344.000,0.0789446,
2343.000,0.0793641,
2342.000,0.0792727,
2341.000,0.0783244,
2340.000,0.0768948,
2339.000,0.0758124,
2338.000,0.0754578,
2337.000,0.0753819,
2336.000,0.0749702,
2335.000,0.0742011,
2334.000,0.0735508,
2333.000,0.0733996,
2332.000,0.0737416,
2331.000,0.0742839,
2330.000,0.0746501,
2329.000,0.0745605,
2328.000,0.0739788,
2327.000,0.0731438,
2326.000,0.0723976,
2325.000,0.0719559,
2324.000,0.0718514,
2323.000,0.0719303,
2322.000,0.0719018,
2321.000,0.0715847,
2320.000,0.0710513,
2319.000,0.0704007,
2318.000,0.0695763,
2317.000,0.0686358,
2316.000,0.0680665,
2315.000,0.0684321,
2314.000,0.0696127,
2313.000,0.0706981,
2312.000,0.0708575,
2311.000,0.0701211,
2310.000,0.0691747,
2309.000,0.068598,
2308.000,0.0685065,
2307.000,0.068695,
2306.000,0.0688616,
2305.000,0.0687814,
2304.000,0.0685001,
2303.000,0.0683184,
2302.000,0.0684411,
2301.000,0.0686857,
2300.000,0.0687138,
2299.000,0.0685134,
2298.000,0.0684081,
2297.000,0.0685132,
2296.000,0.0684486,
2295.000,0.0678353,
2294.000,0.0669899,
2293.000,0.0668304,
2292.000,0.0679424,
2291.000,0.0698405,
2290.000,0.0713028,
2289.000,0.071438,
2288.000,0.0703473,
2287.000,0.0688491,
2286.000,0.0677524,
2285.000,0.0674133,
2284.000,0.0676899,
2283.000,0.0680902,
2282.000,0.0681103,
2281.000,0.0677206,
2280.000,0.0674578,
2279.000,0.0677966,
2278.000,0.0684865,
2277.000,0.068732,
2276.000,0.0680887,
2275.000,0.0669885,
2274.000,0.066235,
2273.000,0.0661467,
2272.000,0.066398,
2271.000,0.0665516,
2270.000,0.0665115,
2269.000,0.0664596,
2268.000,0.0665117,
2267.000,0.0665346,
2266.000,0.0662981,
2265.000,0.0657748,
2264.000,0.0652422,
2263.000,0.0650357,
2262.000,0.0652132,
2261.000,0.0655316,
2260.000,0.0657263,
2259.000,0.0656977,
2258.000,0.0654444,
2257.000,0.0650033,
2256.000,0.0645474,
2255.000,0.0644077,
2254.000,0.0648546,
2253.000,0.0658505,
2252.000,0.0670053,
2251.000,0.0677391,
2250.000,0.0675991,
2249.000,0.0666502,
2248.000,0.0655797,
2247.000,0.0651773,
2246.000,0.0655629,
2245.000,0.0661115,
2244.000,0.066268,
2243.000,0.0662183,
2242.000,0.0664942,
2241.000,0.0670896,
2240.000,0.0673759,
2239.000,0.066965,
2238.000,0.0663384,
2237.000,0.0663748,
2236.000,0.0673571,
2235.000,0.0686649,
2234.000,0.0694113,
2233.000,0.0692494,
2232.000,0.0685405,
2231.000,0.0678981,
2230.000,0.0677161,
2229.000,0.0680399,
2228.000,0.0686382,
2227.000,0.0691165,
2226.000,0.0691109,
2225.000,0.0685894,
2224.000,0.0680072,
2223.000,0.0679443,
2222.000,0.0685009,
2221.000,0.0692541,
2220.000,0.0698497,
2219.000,0.070338,
2218.000,0.0707975,
2217.000,0.0709668,
2216.000,0.0705518,
2215.000,0.069729,
2214.000,0.0690541,
2213.000,0.0689115,
2212.000,0.0692817,
2211.000,0.0699444,
2210.000,0.070638,
2209.000,0.0710456,
2208.000,0.0709207,
2207.000,0.0702927,
2206.000,0.0694658,
2205.000,0.0688397,
2204.000,0.0687268,
2203.000,0.0692118,
2202.000,0.0700813,
2201.000,0.0709286,
2200.000,0.0715073,
2199.000,0.0719927,
2198.000,0.0726952,
2197.000,0.0735259,
2196.000,0.073996,
2195.000,0.073831,
2194.000,0.0733019,
2193.000,0.0728634,
2192.000,0.0727612,
2191.000,0.073089,
2190.000,0.0739435,
2189.000,0.0752727,
2188.000,0.0766725,
2187.000,0.0775802,
2186.000,0.0776955,
2185.000,0.0771442,
2184.000,0.0763083,
2183.000,0.0756304,
2182.000,0.0754886,
2181.000,0.0760245,
2180.000,0.077021,
2179.000,0.0780615,
2178.000,0.0788662,
2177.000,0.0794344,
2176.000,0.0798749,
2175.000,0.0802035,
2174.000,0.0803469,
2173.000,0.0802754,
2172.000,0.0801273,
2171.000,0.0801801,
2170.000,0.0806207,
2169.000,0.0813662,
2168.000,0.0821764,
2167.000,0.082915,
2166.000,0.0835969,
2165.000,0.0841594,
2164.000,0.0843799,
2163.000,0.0841928,
2162.000,0.0839584,
2161.000,0.0841666,
2160.000,0.0849068,
2159.000,0.0858444,
2158.000,0.086692,
2157.000,0.0874663,
2156.000,0.0882203,
2155.000,0.0887704,
2154.000,0.0889003,
2153.000,0.088768,
2152.000,0.0889071,
2151.000,0.0897388,
2150.000,0.0911252,
2149.000,0.0924719,
2148.000,0.0932902,
2147.000,0.093647,
2146.000,0.0939955,
2145.000,0.0946226,
2144.000,0.0953896,
2143.000,0.096068,
2142.000,0.0967825,
2141.000,0.0978765,
2140.000,0.0993743,
2139.000,0.100836,
2138.000,0.101813,
2137.000,0.102266,
2136.000,0.102442,
2135.000,0.102548,
2134.000,0.102672,
2133.000,0.102876,
2132.000,0.103188,
2131.000,0.103598,
2130.000,0.104215,
2129.000,0.105265,
2128.000,0.106756,
2127.000,0.108325,
2126.000,0.10962,
2125.000,0.110694,
2124.000,0.111796,
2123.000,0.112878,
2122.000,0.113619,
2121.000,0.113964,
2120.000,0.114337,
2119.000,0.115196,
2118.000,0.1166,
2117.000,0.118343,
2116.000,0.120308,
2115.000,0.122473,
2114.000,0.12464,
2113.000,0.12642,
2112.000,0.127583,
2111.000,0.12832,
2110.000,0.129072,
2109.000,0.13013,
2108.000,0.131454,
2107.000,0.132862,
2106.000,0.134302,
2105.000,0.135884,
2104.000,0.137633,
2103.000,0.139365,
2102.000,0.140923,
2101.000,0.142434,
2100.000,0.144144,
2099.000,0.146018,
2098.000,0.147748,
2097.000,0.149236,
2096.000,0.150862,
2095.000,0.153113,
2094.000,0.156022,
2093.000,0.159119,
2092.000,0.161831,
2091.000,0.163873,
2090.000,0.165381,
2089.000,0.166839,
2088.000,0.168752,
2087.000,0.171204,
2086.000,0.173752,
2085.000,0.175959,
2084.000,0.178007,
2083.000,0.180555,
2082.000,0.183957,
2081.000,0.187827,
2080.000,0.191467,
2079.000,0.194528,
2078.000,0.197169,
2077.000,0.199804,
2076.000,0.202878,
2075.000,0.206699,
2074.000,0.211186,
2073.000,0.21584,
2072.000,0.220128,
2071.000,0.223964,
2070.000,0.227654,
2069.000,0.231397,
2068.000,0.235125,
2067.000,0.238807,
2066.000,0.242659,
2065.000,0.246868,
2064.000,0.251302,
2063.000,0.255703,
2062.000,0.26006,
2061.000,0.264582,
2060.000,0.269319,
2059.000,0.274108,
2058.000,0.278936,
2057.000,0.284146,
2056.000,0.29011,
2055.000,0.296814,
2054.000,0.303959,
2053.000,0.311421,
2052.000,0.319348,
2051.000,0.32777,
2050.000,0.336313,
2049.000,0.344446,
2048.000,0.352029,
2047.000,0.359488,
2046.000,0.367415,
2045.000,0.376109,
2044.000,0.385473,
2043.000,0.395132,
2042.000,0.404652,
2041.000,0.413827,
2040.000,0.422882,
2039.000,0.432299,
2038.000,0.442418,
2037.000,0.453253,
2036.000,0.464628,
2035.000,0.476302,
2034.000,0.487968,
2033.000,0.499453,
2032.000,0.511009,
2031.000,0.523153,
2030.000,0.536041,
2029.000,0.549186,
2028.000,0.561966,
2027.000,0.574349,
2026.000,0.586819,
2025.000,0.599753,
2024.000,0.613112,
2023.000,0.626703,
2022.000,0.640544,
2021.000,0.654692,
2020.000,0.66913,
2019.000,0.683673,
2018.000,0.698047,
2017.000,0.712088,
2016.000,0.725949,
2015.000,0.740019,
2014.000,0.754594,
2013.000,0.769718,
2012.000,0.78541,
2011.000,0.801766,
2010.000,0.818679,
2009.000,0.83574,
2008.000,0.852652,
2007.000,0.869563,
2006.000,0.886747,
2005.000,0.904186,
2004.000,0.921587,
2003.000,0.938848,
2002.000,0.956285,
2001.000,0.974075,
2000.000,0.992108,
1999.000,1.00989,
1998.000,1.02705,
1997.000,1.04352,
1996.000,1.05934,
1995.000,1.07522,
1994.000,1.09205,
1993.000,1.10978,
1992.000,1.12689,
1991.000,1.14203,
1990.000,1.15534,
1989.000,1.16771,
1988.000,1.17889,
1987.000,1.18774,
1986.000,1.19415,
1985.000,1.19944,
1984.000,1.20473,
1983.000,1.20968,
1982.000,1.21343,
1981.000,1.21584,
1980.000,1.21745,
1979.000,1.21826,
1978.000,1.21804,
1977.000,1.21716,
1976.000,1.21628,
1975.000,1.21594,
1974.000,1.21601,
1973.000,1.21598,
1972.000,1.2153,
1971.000,1.21375,
1970.000,1.21163,
1969.000,1.20948,
1968.000,1.20727,
1967.000,1.20411,
1966.000,1.19898,
1965.000,1.19207,
1964.000,1.18455,
1963.000,1.1768,
1962.000,1.16782,
1961.000,1.15702,
1960.000,1.14524,
1959.000,1.13356,
1958.000,1.12183,
1957.000,1.10909,
1956.000,1.09512,
1955.000,1.08078,
1954.000,1.06674,
1953.000,1.05285,
1952.000,1.0385,
1951.000,1.02345,
1950.000,1.00798,
1949.000,0.992796,
1948.000,0.978757,
1947.000,0.965563,
1946.000,0.95242,
1945.000,0.939497,
1944.000,0.927716,
1943.000,0.916938,
1942.000,0.905489,
1941.000,0.892315,
1940.000,0.878482,
1939.000,0.865287,
1938.000,0.852165,
1937.000,0.838036,
1936.000,0.823341,
1935.000,0.809263,
1934.000,0.795844,
1933.000,0.782084,
1932.000,0.767683,
1931.000,0.753518,
1930.000,0.739923,
1929.000,0.726402,
1928.000,0.712729,
1927.000,0.698904,
1926.000,0.685308,
1925.000,0.672035,
1924.000,0.65901,
1923.000,0.645786,
1922.000,0.631761,
1921.000,0.61803,
1920.000,0.606302,
1919.000,0.596212,
1918.000,0.585085,
1917.000,0.571292,
1916.000,0.556226,
1915.000,0.54209,
1914.000,0.529072,
1913.000,0.516087,
1912.000,0.502957,
1911.000,0.49057,
1910.000,0.479001,
1909.000,0.467357,
1908.000,0.455275,
1907.000,0.443368,
1906.000,0.432248,
1905.000,0.421497,
1904.000,0.410731,
1903.000,0.400105,
1902.000,0.389573,
1901.000,0.37915,
1900.000,0.36889,
1899.000,0.358924,
1898.000,0.34936,
1897.000,0.340101,
1896.000,0.331136,
1895.000,0.322501,
1894.000,0.313907,
1893.000,0.305205,
1892.000,0.296621,
1891.000,0.288429,
1890.000,0.280558,
1889.000,0.272805,
1888.000,0.265181,
1887.000,0.257801,
1886.000,0.250465,
1885.000,0.242866,
1884.000,0.235278,
1883.000,0.22845,
1882.000,0.22276,
1881.000,0.217929,
1880.000,0.213352,
1879.000,0.208524,
1878.000,0.203272,
1877.000,0.19764,
1876.000,0.191923,
1875.000,0.186541,
1874.000,0.181634,
1873.000,0.177272,
1872.000,0.17375,
1871.000,0.171186,
1870.000,0.169086,
1869.000,0.166715,
1868.000,0.163866,
1867.000,0.160822,
1866.000,0.157681,
1865.000,0.154151,
1864.000,0.150107,
1863.000,0.145997,
1862.000,0.142287,
1861.000,0.138891,
1860.000,0.135561,
1859.000,0.132511,
1858.000,0.130228,
1857.000,0.12875,
1856.000,0.127472,
1855.000,0.125698,
1854.000,0.123136,
1853.000,0.119951,
1852.000,0.11656,
1851.000,0.113338,
1850.000,0.110517,
1849.000,0.108015,
1848.000,0.105777,
1847.000,0.104202,
1846.000,0.103548,
1845.000,0.103243,
1844.000,0.10214,
1843.000,0.0998304,
1842.000,0.0970721,
1841.000,0.0948017,
1840.000,0.0931177,
1839.000,0.0913783,
1838.000,0.0891821,
1837.000,0.0869231,
1836.000,0.0852667,
1835.000,0.0842395,
1834.000,0.08326,
1833.000,0.0819563,
1832.000,0.0805249,
1831.000,0.0794498,
1830.000,0.0790173,
1829.000,0.0789359,
1828.000,0.0786313,
1827.000,0.0778409,
1826.000,0.0765373,
1825.000,0.0747861,
1824.000,0.0728315,
1823.000,0.0709704,
1822.000,0.0692958,
1821.000,0.0677815,
1820.000,0.0665809,
1819.000,0.0659476,
1818.000,0.0657656,
1817.000,0.0654426,
1816.000,0.0645247,
1815.000,0.0631663,
1814.000,0.0619558,
1813.000,0.0613162,
1812.000,0.0610538,
1811.000,0.0606451,
1810.000,0.0597372,
1809.000,0.058534,
1808.000,0.0576133,
1807.000,0.0571566,
1806.000,0.0567647,
1805.000,0.0559954,
1804.000,0.0549055,
1803.000,0.0540078,
1802.000,0.0537582,
1801.000,0.0541559,
1800.000,0.0547787,
1799.000,0.0552039,
1798.000,0.0551429,
1797.000,0.0544128,
1796.000,0.0530912,
1795.000,0.051515,
1794.000,0.0500811,
1793.000,0.0489675,
1792.000,0.0481188,
1791.000,0.0473875,
1790.000,0.0466543,
1789.000,0.0460353,
1788.000,0.0458006,
1787.000,0.0459852,
1786.000,0.0462341,
1785.000,0.0459818,
1784.000,0.044965,
1783.000,0.0435332,
1782.000,0.0424214,
1781.000,0.0421331,
1780.000,0.04247,
1779.000,0.0428151,
1778.000,0.0426094,
1777.000,0.0417057,
1776.000,0.0405333,
1775.000,0.0398003,
1774.000,0.0398991,
1773.000,0.04036,
1772.000,0.0402681,
1771.000,0.039342,
1770.000,0.038165,
1769.000,0.0373286,
1768.000,0.036877,
1767.000,0.0364443,
1766.000,0.0357829,
1765.000,0.0350789,
1764.000,0.034566,
1763.000,0.0341935,
1762.000,0.033789,
1761.000,0.0333505,
1760.000,0.0331135,
1759.000,0.0333177,
1758.000,0.0338716,
1757.000,0.0343671,
1756.000,0.0343787,
1755.000,0.0339084,
1754.000,0.0333957,
1753.000,0.0330321,
1752.000,0.0324771,
1751.000,0.0313203,
1750.000,0.0297458,
1749.000,0.0284267,
1748.000,0.0278322,
1747.000,0.0278408,
1746.000,0.0280326,
1745.000,0.0281093,
1744.000,0.0280077,
1743.000,0.0278249,
1742.000,0.0276395,
1741.000,0.0275371,
1740.000,0.0275924,
1739.000,0.0277193,
1738.000,0.0277119,
1737.000,0.0275634,
1736.000,0.0274993,
1735.000,0.0276484,
1734.000,0.0280431,
1733.000,0.0286226,
1732.000,0.0291805,
1731.000,0.0296342,
1730.000,0.0299029,
1729.000,0.0296016,
1728.000,0.0284371,
1727.000,0.0264877,
1726.000,0.023821,
1725.000,0.0203943,
1724.000,0.0165199,
1723.000,0.0128847,
1722.000,0.0100086,
1721.000,0.0079388,
1720.000,0.0063152,
1719.000,0.00469044,
1718.000,0.00302326,
1717.000,0.00163758,
1716.000,0.000920505,
1715.000,0.000993349,
1714.000,0.00145239,
1713.000,0.00210663,
1712.000,0.00294764,
1711.000,0.00364816,
1710.000,0.00406239,
1709.000,0.00442949,
1708.000,0.00497338,
1707.000,0.00564638,
1706.000,0.00643133,
1705.000,0.00765331,
1704.000,0.00947005,
1703.000,0.0117982,
1702.000,0.0155149,
1701.000,0.0233401,
1700.000,0.0374247,
1699.000,0.0557577,
1698.000,0.0740951,
1697.000,0.0905106,
1696.000,0.104489,
1695.000,0.113721,
1694.000,0.11774,
1693.000,0.119692,
1692.000,0.120959,
1691.000,0.119629,
1690.000,0.113819,
1689.000,0.104966,
1688.000,0.0961641,
1687.000,0.0888243,
1686.000,0.0823156,
1685.000,0.0753722,
1684.000,0.0684951,
1683.000,0.06345,
1682.000,0.0610197,
1681.000,0.0602333,
1680.000,0.0591173,
1679.000,0.056801,
1678.000,0.054021,
1677.000,0.0517837,
1676.000,0.0504321,
1675.000,0.0498174,
1674.000,0.0496106,
1673.000,0.0491714,
1672.000,0.0480869,
1671.000,0.0466253,
1670.000,0.0452597,
1669.000,0.0443589,
1668.000,0.0439779,
1667.000,0.0438479,
1666.000,0.0436688,
1665.000,0.0430856,
1664.000,0.0418129,
1663.000,0.0400767,
1662.000,0.0387483,
1661.000,0.0383937,
1660.000,0.0385756,
1659.000,0.0386968,
1658.000,0.038617,
1657.000,0.0383787,
1656.000,0.0378689,
1655.000,0.0366409,
1654.000,0.0342818,
1653.000,0.0317909,
1652.000,0.0309493,
1651.000,0.0316774,
1650.000,0.0330879,
1649.000,0.0352953,
1648.000,0.037493,
1647.000,0.0377271,
1646.000,0.0359631,
1645.000,0.0341268,
1644.000,0.0334079,
1643.000,0.0334998,
1642.000,0.0337058,
1641.000,0.0334187,
1640.000,0.0324045,
1639.000,0.0313606,
1638.000,0.031115,
1637.000,0.0316422,
1636.000,0.0322433,
1635.000,0.0324218,
1634.000,0.0323729,
1633.000,0.032334,
1632.000,0.0321941,
1631.000,0.031822,
1630.000,0.0312869,
1629.000,0.0308903,
1628.000,0.0308107,
1627.000,0.0307701,
1626.000,0.0304287,
1625.000,0.0299226,
1624.000,0.0297264,
1623.000,0.0300877,
1622.000,0.0307724,
1621.000,0.0315098,
1620.000,0.0323067,
1619.000,0.0331571,
1618.000,0.0336015,
1617.000,0.032978,
1616.000,0.031351,
1615.000,0.0295643,
1614.000,0.0283285,
1613.000,0.0277117,
1612.000,0.0274208,
1611.000,0.0273019,
1610.000,0.0275285,
1609.000,0.0282502,
1608.000,0.0292576,
1607.000,0.0301571,
1606.000,0.0306827,
1605.000,0.0307175,
1604.000,0.0301672,
1603.000,0.0291041,
1602.000,0.0278473,
1601.000,0.0268641,
1600.000,0.0265819,
1599.000,0.0270993,
1598.000,0.0280927,
1597.000,0.0289626,
1596.000,0.0291526,
1595.000,0.0285209,
1594.000,0.0275523,
1593.000,0.0271138,
1592.000,0.0277078,
1591.000,0.028888,
1590.000,0.0296648,
1589.000,0.0295419,
1588.000,0.028889,
1587.000,0.0283236,
1586.000,0.0280052,
1585.000,0.0277072,
1584.000,0.0273846,
1583.000,0.0273448,
1582.000,0.0277394,
1581.000,0.0282434,
1580.000,0.0286105,
1579.000,0.0289474,
1578.000,0.029118,
1577.000,0.0285428,
1576.000,0.027218,
1575.000,0.0261076,
1574.000,0.0259599,
1573.000,0.0266376,
1572.000,0.0275658,
1571.000,0.0283689,
1570.000,0.0291366,
1569.000,0.0299365,
1568.000,0.0302853,
1567.000,0.0298456,
1566.000,0.0290325,
1565.000,0.0284458,
1564.000,0.0282992,
1563.000,0.0285214,
1562.000,0.0289554,
1561.000,0.0293578,
1560.000,0.0295153,
1559.000,0.0297872,
1558.000,0.0303248,
1557.000,0.0304408,
1556.000,0.0298325,
1555.000,0.0289667,
1554.000,0.0287484,
1553.000,0.0292826,
1552.000,0.0299058,
1551.000,0.0301755,
1550.000,0.0298221,
1549.000,0.0290113,
1548.000,0.0282437,
1547.000,0.0278642,
1546.000,0.0279634,
1545.000,0.0285479,
1544.000,0.0294668,
1543.000,0.0303267,
1542.000,0.0307226,
1541.000,0.0305303,
1540.000,0.0301324,
1539.000,0.0299158,
1538.000,0.0298163,
1537.000,0.0297626,
1536.000,0.029974,
1535.000,0.0305685,
1534.000,0.0313795,
1533.000,0.0324204,
1532.000,0.0336137,
1531.000,0.0345278,
1530.000,0.0348723,
1529.000,0.0348795,
1528.000,0.0351106,
1527.000,0.0357543,
1526.000,0.0363603,
1525.000,0.0362296,
1524.000,0.0350157,
1523.000,0.032913,
1522.000,0.0305732,
1521.000,0.0291129,
1520.000,0.0292054,
1519.000,0.0305348,
1518.000,0.0324458,
1517.000,0.0342036,
1516.000,0.0351745,
1515.000,0.0352109,
1514.000,0.0347911,
1513.000,0.0344541,
1512.000,0.0341892,
1511.000,0.0337138,
1510.000,0.0330525,
1509.000,0.0326039,
1508.000,0.0327634,
1507.000,0.0336656,
1506.000,0.0348395,
1505.000,0.0358005,
1504.000,0.0361748,
1503.000,0.0358977,
1502.000,0.0356574,
1501.000,0.0354958,
1500.000,0.035264,
1499.000,0.0354705,
1498.000,0.036287,
1497.000,0.0370608,
1496.000,0.0371691,
1495.000,0.036915,
1494.000,0.0369831,
1493.000,0.037423,
1492.000,0.0375551,
1491.000,0.0370306,
1490.000,0.036665,
1489.000,0.0373194,
1488.000,0.0385779,
1487.000,0.0394596,
1486.000,0.0395639,
1485.000,0.0393388,
1484.000,0.0392834,
1483.000,0.03947,
1482.000,0.0398398,
1481.000,0.0402872,
1480.000,0.0408706,
1479.000,0.0418646,
1478.000,0.0434446,
1477.000,0.0452307,
1476.000,0.0463977,
1475.000,0.0463551,
1474.000,0.0453923,
1473.000,0.0446125,
1472.000,0.0448923,
1471.000,0.0460625,
1470.000,0.0473756,
1469.000,0.0483749,
1468.000,0.0489668,
1467.000,0.0490742,
1466.000,0.0487191,
1465.000,0.0482669,
1464.000,0.048149,
1463.000,0.0484672,
1462.000,0.0489359,
1461.000,0.0494565,
1460.000,0.0503318,
1459.000,0.0517072,
1458.000,0.0532747,
1457.000,0.0544121,
1456.000,0.0545684,
1455.000,0.0536427,
1454.000,0.0519775,
1453.000,0.0497098,
1452.000,0.0464395,
1451.000,0.0422039,
1450.000,0.0380211,
1449.000,0.0348451,
1448.000,0.0330025,
1447.000,0.0323764,
1446.000,0.0326039,
1445.000,0.0333534,
1444.000,0.0344794,
1443.000,0.0359614,
1442.000,0.0376033,
1441.000,0.0391901,
1440.000,0.0408036,
1439.000,0.0427102,
1438.000,0.0448502,
1437.000,0.0466733,
1436.000,0.0476856,
1435.000,0.0479626,
1434.000,0.0480442,
1433.000,0.0482171,
1432.000,0.0480962,
1431.000,0.0472518,
1430.000,0.0460106,
1429.000,0.0449709,
1428.000,0.0441882,
1427.000,0.0433859,
1426.000,0.0426903,
1425.000,0.0424657,
1424.000,0.0426089,
1423.000,0.0426083,
1422.000,0.0420844,
1421.000,0.0411752,
1420.000,0.0404616,
1419.000,0.0405751,
1418.000,0.0415398,
1417.000,0.0428415,
1416.000,0.0440672,
1415.000,0.0448896,
1414.000,0.045224,
1413.000,0.0454899,
1412.000,0.0462362,
1411.000,0.0475836,
1410.000,0.0492011,
1409.000,0.0508873,
1408.000,0.0528476,
1407.000,0.0551805,
1406.000,0.057533,
1405.000,0.059355,
1404.000,0.0604504,
1403.000,0.0613152,
1402.000,0.0625665,
1401.000,0.0643172,
1400.000,0.066187,
1399.000,0.067731,
1398.000,0.0689019,
1397.000,0.070079,
1396.000,0.071662,
1395.000,0.0737375,
1394.000,0.0762421,
1393.000,0.0790753,
1392.000,0.0821025,
1391.000,0.0852447,
1390.000,0.0883325,
1389.000,0.090946,
1388.000,0.0927104,
1387.000,0.0938285,
1386.000,0.0951504,
1385.000,0.0975296,
1384.000,0.101001,
1383.000,0.104837,
1382.000,0.10835,
1381.000,0.111446,
1380.000,0.114284,
1379.000,0.116823,
1378.000,0.119161,
1377.000,0.121826,
1376.000,0.125381,
1375.000,0.129937,
1374.000,0.135254,
1373.000,0.140974,
1372.000,0.146762,
1371.000,0.152332,
1370.000,0.157724,
1369.000,0.163345,
1368.000,0.169316,
1367.000,0.175384,
1366.000,0.181504,
1365.000,0.188219,
1364.000,0.196116,
1363.000,0.20495,
1362.000,0.213847,
1361.000,0.222514,
1360.000,0.23135,
1359.000,0.240178,
1358.000,0.248032,
1357.000,0.254041,
1356.000,0.257796,
1355.000,0.258935,
1354.000,0.256571,
1353.000,0.249241,
1352.000,0.235718,
1351.000,0.215893,
1350.000,0.19161,
1349.000,0.166512,
1348.000,0.144812,
1347.000,0.129901,
1346.000,0.123193,
1345.000,0.123734,
1344.000,0.128408,
1343.000,0.132975,
1342.000,0.133684,
1341.000,0.128768,
1340.000,0.119313,
1339.000,0.108954,
1338.000,0.102096,
1337.000,0.101626,
1336.000,0.107913,
1335.000,0.119676,
1334.000,0.135336,
1333.000,0.153622,
1332.000,0.173313,
1331.000,0.192828,
1330.000,0.210569,
1329.000,0.225639,
1328.000,0.237909,
1327.000,0.247349,
1326.000,0.253548,
1325.000,0.255804,
1324.000,0.253664,
1323.000,0.24727,
1322.000,0.237,
1321.000,0.223111,
1320.000,0.205755,
1319.000,0.185506,
1318.000,0.163672,
1317.000,0.141844,
1316.000,0.121274,
1315.000,0.102784,
1314.000,0.0870227,
1313.000,0.0745386,
1312.000,0.0657921,
1311.000,0.0612163,
1310.000,0.0612429,
1309.000,0.0659434,
1308.000,0.0746597,
1307.000,0.0863471,
1306.000,0.100257,
1305.000,0.116263,
1304.000,0.134447,
1303.000,0.154537,
1302.000,0.175904,
1301.000,0.197963,
1300.000,0.220487,
1299.000,0.243521,
1298.000,0.266965,
1297.000,0.290303,
1296.000,0.312799,
1295.000,0.333975,
1294.000,0.353755,
1293.000,0.37201,
1292.000,0.388086,
1291.000,0.401168,
1290.000,0.410991,
1289.000,0.417829,
1288.000,0.422008,
1287.000,0.423667,
1286.000,0.423009,
1285.000,0.420208,
1284.000,0.414995,
1283.000,0.406939,
1282.000,0.396074,
1281.000,0.383053,
1280.000,0.36876,
1279.000,0.354193,
1278.000,0.340598,
1277.000,0.328944,
1276.000,0.319171,
1275.000,0.310384,
1274.000,0.301872,
1273.000,0.293457,
1272.000,0.284905,
1271.000,0.275621,
1270.000,0.265193,
1269.000,0.253859,
1268.000,0.242306,
1267.000,0.231559,
1266.000,0.223152,
1265.000,0.218641,
1264.000,0.218456,
1263.000,0.221294,
1262.000,0.224934,
1261.000,0.227456,
1260.000,0.227719,
1259.000,0.225389,
1258.000,0.220954,
1257.000,0.215282,
1256.000,0.208735,
1255.000,0.200988,
1254.000,0.191937,
1253.000,0.182377,
1252.000,0.173252,
1251.000,0.164661,
1250.000,0.156124,
1249.000,0.147558,
1248.000,0.139431,
1247.000,0.132109,
1246.000,0.12556,
1245.000,0.119586,
1244.000,0.113908,
1243.000,0.108018,
1242.000,0.101497,
1241.000,0.0946085,
1240.000,0.0881032,
1239.000,0.0824459,
1238.000,0.0775965,
1237.000,0.0734053,
1236.000,0.0695798,
1235.000,0.0652902,
1234.000,0.0597211,
1233.000,0.0533007,
1232.000,0.0477498,
1231.000,0.0444492,
1230.000,0.0429295,
1229.000,0.0413777,
1228.000,0.038431,
1227.000,0.0342005,
1226.000,0.0298639,
1225.000,0.0266634,
1224.000,0.0253217,
1223.000,0.0259535,
1222.000,0.0283172,
1221.000,0.0323963,
1220.000,0.0385414,
1219.000,0.0468709,
1218.000,0.05669,
1217.000,0.0667937,
1216.000,0.0764223,
1215.000,0.0855329,
1214.000,0.0941081,
1213.000,0.101506,
1212.000,0.106688,
1211.000,0.108875,
1210.000,0.108074,
1209.000,0.105164,
1208.000,0.101437,
1207.000,0.0979199,
1206.000,0.0947926,
1205.000,0.0915828,
1204.000,0.0880505,
1203.000,0.0847266,
1202.000,0.0823567,
1201.000,0.0808601,
1200.000,0.0791929,
1199.000,0.0764305,
1198.000,0.0727624,
1197.000,0.0691279,
1196.000,0.0660834,
1195.000,0.0633942,
1194.000,0.0605789,
1193.000,0.0574125,
1192.000,0.0539191,
1191.000,0.0503713,
1190.000,0.0474937,
1189.000,0.0461074,
1188.000,0.0461713,
1187.000,0.0466199,
1186.000,0.0463407,
1185.000,0.0450883,
1184.000,0.0434715,
1183.000,0.0422114,
1182.000,0.0416472,
1181.000,0.0418638,
1180.000,0.0426701,
1179.000,0.0433299,
1178.000,0.0429359,
1177.000,0.0413047,
1176.000,0.0391084,
1175.000,0.0369517,
1174.000,0.0347142,
1173.000,0.0320745,
1172.000,0.0292773,
1171.000,0.0270567,
1170.000,0.0259985,
1169.000,0.0262739,
1168.000,0.0278127,
1167.000,0.0300091,
1166.000,0.0315081,
1165.000,0.0310982,
1164.000,0.028855,
1163.000,0.0259364,
1162.000,0.0232485,
1161.000,0.021045,
1160.000,0.0196134,
1159.000,0.0191437,
1158.000,0.0191149,
1157.000,0.018764,
1156.000,0.0181917,
1155.000,0.0184182,
1154.000,0.0198706,
1153.000,0.0212342,
1152.000,0.020567,
1151.000,0.0175306,
1150.000,0.0139626,
1149.000,0.0121931,
1148.000,0.0131084,
1147.000,0.0159097,
1146.000,0.0191568,
1145.000,0.0212933,
1144.000,0.0214232,
1143.000,0.01991,
1142.000,0.0177357,
1141.000,0.0155156,
1140.000,0.0134243,
1139.000,0.0116886,
1138.000,0.0106677,
1137.000,0.010569,
1136.000,0.0110796,
1135.000,0.0114541,
1134.000,0.0113507,
1133.000,0.0109744,
1132.000,0.010651,
1131.000,0.0106845,
1130.000,0.0112581,
1129.000,0.0120126,
1128.000,0.0120994,
1127.000,0.0113305,
1126.000,0.0106528,
1125.000,0.0108813,
1124.000,0.011691,
1123.000,0.0121829,
1122.000,0.0121284,
1121.000,0.0121098,
1120.000,0.0121604,
1119.000,0.01178,
1118.000,0.0112849,
1117.000,0.0111647,
1116.000,0.011743,
1115.000,0.0132526,
1114.000,0.0146185,
1113.000,0.0148609,
1112.000,0.0143243,
1111.000,0.0135969,
1110.000,0.0125721,
1109.000,0.0109615,
1108.000,0.00870819,
1107.000,0.0060392,
1106.000,0.00431657,
1105.000,0.0044905,
1104.000,0.00456161,
1103.000,0.00444674,
1102.000,0.0049761,
1101.000,0.00580952,
1100.000,0.0065379,
1099.000,0.00703736,
1098.000,0.00698911,
1097.000,0.00611232,
1096.000,0.0049485,
1095.000,0.00435152,
1094.000,0.00479107,
1093.000,0.0061131,
1092.000,0.00695462,
1091.000,0.00648199,
1090.000,0.00534277,
1089.000,0.00473869,
1088.000,0.00521309,
1087.000,0.00644766,
1086.000,0.00801272,
1085.000,0.00945499,
1084.000,0.0100577,
1083.000,0.0095683,
1082.000,0.00880168,
1081.000,0.0085401,
1080.000,0.0084988,
1079.000,0.00783537,
1078.000,0.00630212,
1077.000,0.00551846,
1076.000,0.00645404,
1075.000,0.00746796,
1074.000,0.00738258,
1073.000,0.0058688,
1072.000,0.00401589,
1071.000,0.00373298,
1070.000,0.00520385,
1069.000,0.00722232,
1068.000,0.00840917,
1067.000,0.0084212,
1066.000,0.00764681,
1065.000,0.00605365,
1064.000,0.00362254,
1063.000,0.0011167,
1062.000,0.000285837,
1061.000,0.00102362,
1060.000,0.00286977,
1059.000,0.00536909,
1058.000,0.00722917,
1057.000,0.00774011,
1056.000,0.00680707,
1055.000,0.00483299,
1054.000,0.00302847,
1053.000,0.00272691,
1052.000,0.00240868,
1051.000,0.00104843,
1050.000,0.00289134,
1049.000,0.00525331,
1048.000,0.00539622,
1047.000,0.00318544,
1046.000,0.000770668,
1045.000,0.00265891,
1044.000,0.00433474,
1043.000,0.00488603,
1042.000,0.00458349,
1041.000,0.00462098,
1040.000,0.00597101,
1039.000,0.007862,
1038.000,0.00916038,
1037.000,0.00924153,
1036.000,0.0078043,
1035.000,0.00482942,
1034.000,0.00129567,
1033.000,0.0010595,
1032.000,0.00150162,
1031.000,0.00241824,
1030.000,0.00486627,
1029.000,0.00610515,
1028.000,0.00584036,
1027.000,0.00530948,
1026.000,0.00562761,
1025.000,0.00687107,
1024.000,0.00890934,
1023.000,0.0110048,
1022.000,0.0119262,
1021.000,0.0111152,
1020.000,0.00889143,
1019.000,0.00588799,
1018.000,0.00281491,
1017.000,0.000709708,
1016.000,0.000945892,
1015.000,0.0011077,
1014.000,0.00337756,
1013.000,0.00634924,
1012.000,0.00842138,
1011.000,0.008676,
1010.000,0.00704099,
1009.000,0.00430867,
1008.000,0.00150209,
1007.000,0.000713856,
1006.000,0.00205394,
1005.000,0.00257343,
1004.000,0.00264844,
1003.000,0.00240414,
1002.000,0.00174566,
1001.000,0.00157396,
1000.000,0.00263101,
999.000,0.0035796,
998.000,0.00453787,
997.000,0.00609099,
996.000,0.0078906,
995.000,0.00884019,
994.000,0.00820692,
993.000,0.00630717,
992.000,0.00423209,
991.000,0.0032491,
990.000,0.00296135,
989.000,0.00199875,
988.000,0.00328764,
987.000,0.00654699,
986.000,0.00791088,
985.000,0.00643165,
984.000,0.00341653,
983.000,0.00167089,
982.000,0.00203972,
981.000,0.0019217,
980.000,0.0023808,
979.000,0.00400392,
978.000,0.00507672,
977.000,0.00458035,
976.000,0.002877,
975.000,0.00115304,
974.000,0.000884559,
973.000,0.00147994,
972.000,0.00168238,
971.000,0.0018403,
970.000,0.00231156,
969.000,0.0027414,
968.000,0.00302455,
967.000,0.00350402,
966.000,0.00425198,
965.000,0.00492334,
964.000,0.00521632,
963.000,0.00498777,
962.000,0.00431169,
961.000,0.00370922,
960.000,0.00340183,
959.000,0.00314339,
958.000,0.00380839,
957.000,0.0055787,
956.000,0.00707618,
955.000,0.00749045,
954.000,0.00663083,
953.000,0.0051178,
952.000,0.00491091,
951.000,0.0059789,
950.000,0.00628,
949.000,0.00557701,
948.000,0.00429185,
947.000,0.00305521,
946.000,0.00356031,
945.000,0.00607921,
944.000,0.00880727,
943.000,0.0101372,
942.000,0.00944901,
941.000,0.00725736,
940.000,0.00430041,
939.000,0.00162507,
938.000,0.00284837,
937.000,0.00503125,
936.000,0.0056746,
935.000,0.00446593,
934.000,0.00221515,
933.000,0.000645125,
932.000,0.00173121,
931.000,0.00253589,
930.000,0.00303643,
929.000,0.00381545,
928.000,0.00451005,
927.000,0.00424056,
926.000,0.00363673,
925.000,0.00461255,
924.000,0.0062695,
923.000,0.00741255,
922.000,0.00775343,
921.000,0.00694159,
920.000,0.00496772,
919.000,0.00289298,
918.000,0.00288863,
917.000,0.0041185,
916.000,0.00432729,
915.000,0.00367072,
914.000,0.00346522,
913.000,0.00443305,
912.000,0.00636619,
911.000,0.00761445,
910.000,0.00715793,
909.000,0.00568922,
908.000,0.00425416,
907.000,0.00304803,
906.000,0.00205065,
905.000,0.00149817,
904.000,0.00120267,
903.000,0.00136575,
902.000,0.00230772,
901.000,0.00318462,
900.000,0.00329934,
899.000,0.00343606,
898.000,0.00461288,
897.000,0.0056997,
896.000,0.00556586,
895.000,0.00440961,
894.000,0.00245082,
893.000,0.000586535,
892.000,0.00231812,
891.000,0.0037991,
890.000,0.00419582,
889.000,0.00357718,
888.000,0.00304757,
887.000,0.00410884,
886.000,0.00518904,
885.000,0.00508765,
884.000,0.00432419,
883.000,0.00381266,
882.000,0.00325116,
881.000,0.00254012,
880.000,0.00241502,
879.000,0.00272874,
878.000,0.00323389,
877.000,0.00432626,
876.000,0.00383654,
875.000,0.0018967,
874.000,0.00349183,
873.000,0.00479058,
872.000,0.00320069,
871.000,0.000792744,
870.000,0.00270022,
869.000,0.00477763,
868.000,0.00527057,
867.000,0.004275,
866.000,0.00184496,
865.000,0.00138511,
864.000,0.00415823,
863.000,0.00558851,
862.000,0.0055482,
861.000,0.00501234,
860.000,0.00405802,
859.000,0.00294868,
858.000,0.00233153,
857.000,0.00168453,
856.000,0.00183503,
855.000,0.00277404,
854.000,0.00160495,
853.000,0.00114456,
852.000,0.00414538,
851.000,0.00668248,
850.000,0.00767812,
849.000,0.00697639,
848.000,0.0041916,
847.000,0.00198537,
846.000,0.00562069,
845.000,0.00911382,
844.000,0.00984501,
843.000,0.00762928,
842.000,0.00359561,
841.000,0.00192715,
840.000,0.00332213,
839.000,0.00297744,
838.000,0.00244107,
837.000,0.00399047,
836.000,0.00492449,
835.000,0.00335274,
834.000,0.00173596,
833.000,0.00470494,
832.000,0.00723784,
831.000,0.00846834,
830.000,0.0088379,
829.000,0.00839158,
828.000,0.0081674,
827.000,0.00789318,
826.000,0.00719958,
825.000,0.0068483,
824.000,0.00763047,
823.000,0.00918886,
822.000,0.00995406,
821.000,0.00897452,
820.000,0.00554138,
819.000,0.00167613,
818.000,0.00230109,
817.000,0.00205364,
816.000,0.00281607,
815.000,0.00650905,
814.000,0.00816503,
813.000,0.00727825,
812.000,0.00532605,
811.000,0.00320484,
810.000,0.00118155,
809.000,0.00174489,
808.000,0.00326147,
807.000,0.00372239,
806.000,0.00373041,
805.000,0.00363144,
804.000,0.00317999,
803.000,0.00388127,
802.000,0.00727929,
801.000,0.0104261,
800.000,0.0107275,
799.000,0.00799678,
798.000,0.00488215,
797.000,0.00505554,
796.000,0.0069505,
795.000,0.00767684,
794.000,0.00693551,
793.000,0.00596854,
792.000,0.00622013,
791.000,0.00704045,
790.000,0.00668796,
789.000,0.00407727,
788.000,0.0026584,
787.000,0.00504145,
786.000,0.00628219,
785.000,0.0048048,
784.000,0.00190937,
783.000,0.0027942,
782.000,0.00567319,
781.000,0.0063619,
780.000,0.00546062,
779.000,0.00414935,
778.000,0.00316852,
777.000,0.00258814,
776.000,0.00182198,
775.000,0.000656906,
774.000,0.000785211,
773.000,0.00193049,
772.000,0.00278705,
771.000,0.00343977,
770.000,0.00462146,
769.000,0.00540881,
768.000,0.00394311,
767.000,0.00269063,
766.000,0.00489357,
765.000,0.00685736,
764.000,0.00689324,
763.000,0.00661273,
762.000,0.0072568,
761.000,0.00718607,
760.000,0.00602378,
759.000,0.00646975,
758.000,0.0087993,
757.000,0.0109088,
756.000,0.0113961,
755.000,0.00867159,
754.000,0.00316041,
753.000,0.00220977,
752.000,0.00487308,
751.000,0.00469821,
750.000,0.00323869,
749.000,0.00271017,
748.000,0.00353662,
747.000,0.00498575,
746.000,0.00577792,
745.000,0.00618422,
744.000,0.00450439,
743.000,0.00135271,
742.000,0.00340625,
741.000,0.00588627,
740.000,0.00482775,
739.000,0.00348066,
738.000,0.00453607,
737.000,0.00486113,
736.000,0.00244567,
735.000,0.00142916,
734.000,0.0025301,
733.000,0.00311729,
732.000,0.00459434,
731.000,0.00528314,
730.000,0.0039668,
729.000,0.00515538,
728.000,0.00754714,
727.000,0.00782014,
726.000,0.00452471,
725.000,0.00124934,
724.000,0.00491863,
723.000,0.0076891,
722.000,0.00814132,
721.000,0.0076954,
720.000,0.0056706,
719.000,0.00252652,
718.000,0.00157575,
717.000,0.00546149,
716.000,0.00857419,
715.000,0.00940753,
714.000,0.00764244,
713.000,0.00487823,
712.000,0.00530315,
711.000,0.00689686,
710.000,0.006623,
709.000,0.00472342,
708.000,0.00370276,
707.000,0.00535258,
706.000,0.0070969,
705.000,0.00682146,
704.000,0.00505982,
703.000,0.00339635,
702.000,0.00300519,
701.000,0.00363558,
700.000,0.00437079,
699.000,0.00537066,
698.000,0.00749249,
697.000,0.0104278,
696.000,0.0127372,
695.000,0.0129856,
694.000,0.0112182,
693.000,0.00847018,
692.000,0.00575567,
691.000,0.00304455,
690.000,0.000689093,
689.000,0.000634568,
688.000,0.00178807,
687.000,0.00353394,
686.000,0.00374684,
685.000,0.00389524,
684.000,0.00339913,
683.000,0.000650035,
682.000,0.00333813,
681.000,0.00652261,
680.000,0.00665474,
679.000,0.00596324,
678.000,0.00533948,
677.000,0.00547334,
676.000,0.00595741,
675.000,0.00585298,
674.000,0.00432239,
673.000,0.00184856,
672.000,0.00039151,
671.000,0.00189594,
670.000,0.00371041,
669.000,0.00516081,
668.000,0.00601759,
667.000,0.0065744,
666.000,0.00852779,
665.000,0.0119802,
664.000,0.0158437,
663.000,0.0183241,
662.000,0.0180541,
661.000,0.0146088,
660.000,0.00951605,
659.000,0.00673405,
658.000,0.00693081,
657.000,0.00800132,
656.000,0.0106608,
655.000,0.0132958,
654.000,0.0128888,
653.000,0.00999363,
652.000,0.00715232,
651.000,0.00512891,
650.000,0.00298449,
649.000,0.00260602,
648.000,0.00514383,
647.000,0.00826959,
646.000,0.0107156,
645.000,0.0117718,
644.000,0.01098,
643.000,0.00882034,
642.000,0.00712847,
641.000,0.00774332,
640.000,0.00967166,
639.000,0.0106767,
638.000,0.010633,
637.000,0.0108513,
636.000,0.0116144,
635.000,0.0115491,
634.000,0.00962549,
633.000,0.0059043,
632.000,0.0017633,
631.000,0.00138199,
630.000,0.00375835,
629.000,0.00521658,
628.000,0.00687301,
627.000,0.00853124,
626.000,0.00898716,
625.000,0.00983307,
624.000,0.0134494,
623.000,0.0164103,
622.000,0.0163316,
621.000,0.0117485,
620.000,0.00439332,
619.000,0.00519531,
618.000,0.0108291,
617.000,0.0131681,
616.000,0.0140041,
615.000,0.0143315,
614.000,0.0134541,
613.000,0.011197,
612.000,0.00905977,
611.000,0.007519,
610.000,0.00629784,
609.000,0.00773778,
608.000,0.0107052,
607.000,0.0103898,
606.000,0.00583375,
605.000,0.0028196,
604.000,0.00331027,
603.000,0.00225755,
602.000,0.00296595,
601.000,0.00704101,
600.000,0.00964572,
599.000,0.00942159,
598.000,0.00812861,
597.000,0.00709347,
596.000,0.00610673,
595.000,0.00541649,
594.000,0.00260534,
593.000,0.00238652,
592.000,0.0079083,
591.000,0.0114931,
590.000,0.0115225,
589.000,0.00910709,
588.000,0.00652369,
587.000,0.00651689,
586.000,0.00807662,
585.000,0.00911048,
584.000,0.00835743,
583.000,0.00699214,
582.000,0.00744408,
581.000,0.0111808,
580.000,0.0166674,
579.000,0.0203399,
578.000,0.0195338,
577.000,0.014775,
576.000,0.00928179,
575.000,0.00587395,
574.000,0.00511429,
573.000,0.00778848,
572.000,0.0136432,
571.000,0.0191985,
570.000,0.0204603,
569.000,0.0164935,
568.000,0.0102501,
567.000,0.0067125,
566.000,0.0077609,
565.000,0.00962233,
564.000,0.00852195,
563.000,0.00776401,
562.000,0.0114597,
561.000,0.015808,
560.000,0.0175989,
559.000,0.0159212,
558.000,0.0114385,
557.000,0.00655724,
556.000,0.00493619,
555.000,0.00359333,
554.000,0.001161,
553.000,0.00537915,
552.000,0.0102278,
551.000,0.0117341,
550.000,0.00795678,
549.000,0.00261554,
548.000,0.00577517,
547.000,0.00883574,
546.000,0.00899151,
545.000,0.00946564,
544.000,0.00930744,
543.000,0.0101633,
542.000,0.0105643,
541.000,0.00929011,
540.000,0.00441782,
539.000,0.00169972,
538.000,0.00675524,
537.000,0.0079181,
536.000,0.00750093,
535.000,0.0133837,
534.000,0.0190879,
533.000,0.0192297,
532.000,0.0142815,
531.000,0.0120012,
530.000,0.0154413,
529.000,0.0167798,
528.000,0.0146272,
527.000,0.00759748,
526.000,0.00435759,
525.000,0.0155428,
524.000,0.0241817,
523.000,0.0256156,
522.000,0.0256546,
521.000,0.0266142,
520.000,0.0277058,
519.000,0.0250454,
518.000,0.0149827,
517.000,0.00373196,
516.000,0.00674537,
515.000,0.0162372,
514.000,0.0199456,
513.000,0.0174847,
512.000,0.00933953,
511.000,0.00307441,
510.000,0.00669545,
509.000,0.0122392,
508.000,0.0147713,
507.000,0.0150473,
506.000,0.0137978,
505.000,0.013567,
504.000,0.0154973,
503.000,0.0198373,
502.000,0.0221419,
501.000,0.0207633,
500.000,0.0183049,
499.000,0.0185497,
498.000,0.0172644,
497.000,0.0136217,
496.000,0.0153515,
495.000,0.018039,
494.000,0.0118727,
493.000,0.0078533,
492.000,0.0217999,
491.000,0.0344514,
490.000,0.0369526,
489.000,0.0242308,
488.000,0.00681267,
487.000,0.0116112,
486.000,0.0166049,
485.000,0.0127272,
484.000,0.0115148,
483.000,0.018215,
482.000,0.0297046,
481.000,0.0387213,
480.000,0.0455429,
479.000,0.0498678,
478.000,0.0507423,
477.000,0.0460006,
476.000,0.0378844,
475.000,0.0321781,
474.000,0.0302312,
473.000,0.027722,
472.000,0.020663,
471.000,0.00967377,
470.000,0.00802251,
469.000,0.0186709,
468.000,0.0268784,
467.000,0.0312395,
466.000,0.0323441,
465.000,0.0293253,
464.000,0.0178053,
463.000,0.0066026,
462.000,0.0115101,
461.000,0.0174473,
460.000,0.0193344,
459.000,0.0200584,
458.000,0.0201135,
457.000,0.021905,
456.000,0.0225348,
455.000,0.0177459,
454.000,0.0109066,
453.000,0.0117369,
452.000,0.0167829,
451.000,0.0183464,
450.000,0.0224725,
449.000,0.0178536,
448.000,0.0076023,
447.000,0.0221325,
446.000,0.041001,
445.000,0.04606,
444.000,0.0396737,
443.000,0.024487,
442.000,0.018042,
441.000,0.0234591,
440.000,0.0351966,
439.000,0.0424112,
438.000,0.0456984,
437.000,0.0332839,
436.000,0.00952912,
435.000,0.0237862,
434.000,0.0493225,
433.000,0.0580563,
432.000,0.0630689,
431.000,0.0676368,
430.000,0.0710118,
429.000,0.0649316,
428.000,0.0651141,
427.000,0.0810282,
426.000,0.0877158,
425.000,0.0680645,
424.000,0.0504827,
423.000,0.0565665,
422.000,0.0579482,
421.000,0.0468805,
420.000,0.0405766,
419.000,0.0417384,
418.000,0.0511332,
417.000,0.0613329,
416.000,0.0626038,
415.000,0.0361668,
414.000,0.0124281,
413.000,0.039394,
412.000,0.0416012,
411.000,0.0237312,
410.000,0.0611169,
409.000,0.117657,
408.000,0.156053,
407.000,0.166519,
406.000,0.162708,
405.000,0.18052,
404.000,0.211724,
403.000,0.204991,
402.000,0.172123,
401.000,0.160236,
400.000,0.159323,
