,d2o 048 By Administrator Date Tuesday. December 14 2021,
Time,14:31:46,
Wavenumbers [1/cm],Transmittance %,
7000.000,10.9069,
6999.000,10.966,
6998.000,11.0184,
6997.000,11.0724,
6996.000,11.1304,
6995.000,11.1872,
6994.000,11.2377,
6993.000,11.2843,
6992.000,11.3342,
6991.000,11.3911,
6990.000,11.4506,
6989.000,11.5082,
6988.000,11.5654,
6987.000,11.6274,
6986.000,11.6953,
6985.000,11.7633,
6984.000,11.8248,
6983.000,11.8769,
6982.000,11.9208,
6981.000,11.959,
6980.000,11.9951,
6979.000,12.033,
6978.000,12.0761,
6977.000,12.1255,
6976.000,12.1792,
6975.000,12.2321,
6974.000,12.2802,
6973.000,12.3235,
6972.000,12.3653,
6971.000,12.4086,
6970.000,12.4533,
6969.000,12.498,
6968.000,12.542,
6967.000,12.5855,
6966.000,12.6282,
6965.000,12.6696,
6964.000,12.7094,
6963.000,12.7469,
6962.000,12.7808,
6961.000,12.8113,
6960.000,12.84,
6959.000,12.8685,
6958.000,12.8961,
6957.000,12.9215,
6956.000,12.9455,
6955.000,12.9703,
6954.000,12.998,
6953.000,13.0283,
6952.000,13.0578,
6951.000,13.0826,
6950.000,13.1019,
6949.000,13.1182,
6948.000,13.1322,
6947.000,13.1405,
6946.000,13.14,
6945.000,13.1344,
6944.000,13.1312,
6943.000,13.132,
6942.000,13.1322,
6941.000,13.1301,
6940.000,13.1307,
6939.000,13.1379,
6938.000,13.1471,
6937.000,13.1499,
6936.000,13.1429,
6935.000,13.1285,
6934.000,13.1114,
6933.000,13.0954,
6932.000,13.0824,
6931.000,13.071,
6930.000,13.0573,
6929.000,13.0391,
6928.000,13.0178,
6927.000,12.9946,
6926.000,12.9675,
6925.000,12.9345,
6924.000,12.8981,
6923.000,12.8627,
6922.000,12.8305,
6921.000,12.8012,
6920.000,12.7739,
6919.000,12.7467,
6918.000,12.7172,
6917.000,12.6846,
6916.000,12.6505,
6915.000,12.6158,
6914.000,12.5787,
6913.000,12.5377,
6912.000,12.4937,
6911.000,12.4481,
6910.000,12.4006,
6909.000,12.3522,
6908.000,12.306,
6907.000,12.2636,
6906.000,12.2229,
6905.000,12.182,
6904.000,12.142,
6903.000,12.1032,
6902.000,12.0616,
6901.000,12.0141,
6900.000,11.9628,
6899.000,11.9111,
6898.000,11.8571,
6897.000,11.7981,
6896.000,11.7373,
6895.000,11.6825,
6894.000,11.6355,
6893.000,11.5916,
6892.000,11.5463,
6891.000,11.5001,
6890.000,11.4538,
6889.000,11.4045,
6888.000,11.3487,
6887.000,11.2872,
6886.000,11.2245,
6885.000,11.1649,
6884.000,11.1113,
6883.000,11.0636,
6882.000,11.0187,
6881.000,10.9728,
6880.000,10.9245,
6879.000,10.8752,
6878.000,10.825,
6877.000,10.7727,
6876.000,10.7178,
6875.000,10.662,
6874.000,10.606,
6873.000,10.5484,
6872.000,10.4888,
6871.000,10.4305,
6870.000,10.3772,
6869.000,10.3285,
6868.000,10.2819,
6867.000,10.2367,
6866.000,10.1943,
6865.000,10.1523,
6864.000,10.1046,
6863.000,10.0479,
6862.000,9.98635,
6861.000,9.9266,
6860.000,9.86874,
6859.000,9.80838,
6858.000,9.74606,
6857.000,9.6888,
6856.000,9.64076,
6855.000,9.59754,
6854.000,9.55306,
6853.000,9.5079,
6852.000,9.46602,
6851.000,9.42604,
6850.000,9.38228,
6849.000,9.33354,
6848.000,9.28395,
6847.000,9.23483,
6846.000,9.18251,
6845.000,9.12606,
6844.000,9.07145,
6843.000,9.02387,
6842.000,8.98,
6841.000,8.93299,
6840.000,8.88268,
6839.000,8.83475,
6838.000,8.79085,
6837.000,8.74547,
6836.000,8.69359,
6835.000,8.63761,
6834.000,8.58417,
6833.000,8.5364,
6832.000,8.49194,
6831.000,8.44781,
6830.000,8.4043,
6829.000,8.36289,
6828.000,8.32252,
6827.000,8.27999,
6826.000,8.23412,
6825.000,8.18797,
6824.000,8.14583,
6823.000,8.10841,
6822.000,8.07225,
6821.000,8.03365,
6820.000,7.99221,
6819.000,7.94996,
6818.000,7.90758,
6817.000,7.86249,
6816.000,7.81142,
6815.000,7.75514,
6814.000,7.69988,
6813.000,7.65231,
6812.000,7.61289,
6811.000,7.57556,
6810.000,7.53508,
6809.000,7.49289,
6808.000,7.45415,
6807.000,7.4208,
6806.000,7.38979,
6805.000,7.35736,
6804.000,7.32238,
6803.000,7.28575,
6802.000,7.24845,
6801.000,7.21036,
6800.000,7.16993,
6799.000,7.12554,
6798.000,7.07867,
6797.000,7.03495,
6796.000,6.99944,
6795.000,6.97115,
6794.000,6.94412,
6793.000,6.91362,
6792.000,6.87944,
6791.000,6.84316,
6790.000,6.80501,
6789.000,6.76466,
6788.000,6.72291,
6787.000,6.68113,
6786.000,6.63999,
6785.000,6.59975,
6784.000,6.56096,
6783.000,6.52414,
6782.000,6.48945,
6781.000,6.45683,
6780.000,6.42594,
6779.000,6.39563,
6778.000,6.36463,
6777.000,6.33272,
6776.000,6.30063,
6775.000,6.26885,
6774.000,6.23722,
6773.000,6.20547,
6772.000,6.17306,
6771.000,6.139,
6770.000,6.10296,
6769.000,6.06637,
6768.000,6.03107,
6767.000,5.99727,
6766.000,5.96409,
6765.000,5.93169,
6764.000,5.90109,
6763.000,5.87193,
6762.000,5.842,
6761.000,5.80924,
6760.000,5.7731,
6759.000,5.73411,
6758.000,5.69371,
6757.000,5.65411,
6756.000,5.61732,
6755.000,5.58409,
6754.000,5.55464,
6753.000,5.52951,
6752.000,5.50807,
6751.000,5.48688,
6750.000,5.46173,
6749.000,5.43142,
6748.000,5.39776,
6747.000,5.3623,
6746.000,5.32549,
6745.000,5.2889,
6744.000,5.25562,
6743.000,5.22747,
6742.000,5.20341,
6741.000,5.18104,
6740.000,5.15839,
6739.000,5.13414,
6738.000,5.10801,
6737.000,5.08107,
6736.000,5.0541,
6735.000,5.02546,
6734.000,4.99287,
6733.000,4.95768,
6732.000,4.92502,
6731.000,4.89812,
6730.000,4.87475,
6729.000,4.85063,
6728.000,4.82447,
6727.000,4.79807,
6726.000,4.77246,
6725.000,4.74603,
6724.000,4.7169,
6723.000,4.68595,
6722.000,4.65694,
6721.000,4.63327,
6720.000,4.61457,
6719.000,4.59695,
6718.000,4.57723,
6717.000,4.55625,
6716.000,4.53642,
6715.000,4.5169,
6714.000,4.49357,
6713.000,4.46402,
6712.000,4.43072,
6711.000,4.39805,
6710.000,4.36767,
6709.000,4.33883,
6708.000,4.31222,
6707.000,4.29134,
6706.000,4.27893,
6705.000,4.27284,
6704.000,4.26656,
6703.000,4.25448,
6702.000,4.2364,
6701.000,4.21617,
6700.000,4.19661,
6699.000,4.17719,
6698.000,4.15672,
6697.000,4.13638,
6696.000,4.11719,
6695.000,4.09784,
6694.000,4.07607,
6693.000,4.05254,
6692.000,4.03143,
6691.000,4.01593,
6690.000,4.0052,
6689.000,3.99596,
6688.000,3.98597,
6687.000,3.97505,
6686.000,3.96382,
6685.000,3.9523,
6684.000,3.93977,
6683.000,3.92582,
6682.000,3.9112,
6681.000,3.89698,
6680.000,3.88266,
6679.000,3.86646,
6678.000,3.84811,
6677.000,3.82985,
6676.000,3.81351,
6675.000,3.79851,
6674.000,3.78422,
6673.000,3.77279,
6672.000,3.76629,
6671.000,3.76232,
6670.000,3.75587,
6669.000,3.74548,
6668.000,3.73441,
6667.000,3.72529,
6666.000,3.71675,
6665.000,3.70667,
6664.000,3.69591,
6663.000,3.68707,
6662.000,3.68119,
6661.000,3.67698,
6660.000,3.67192,
6659.000,3.66346,
6658.000,3.65102,
6657.000,3.63759,
6656.000,3.62767,
6655.000,3.62279,
6654.000,3.62036,
6653.000,3.61726,
6652.000,3.61292,
6651.000,3.60835,
6650.000,3.60432,
6649.000,3.60162,
6648.000,3.60085,
6647.000,3.60074,
6646.000,3.59853,
6645.000,3.59311,
6644.000,3.58622,
6643.000,3.57935,
6642.000,3.5718,
6641.000,3.56328,
6640.000,3.55649,
6639.000,3.55444,
6638.000,3.55662,
6637.000,3.56008,
6636.000,3.563,
6635.000,3.56501,
6634.000,3.56486,
6633.000,3.56054,
6632.000,3.55211,
6631.000,3.54246,
6630.000,3.53485,
6629.000,3.5306,
6628.000,3.52928,
6627.000,3.53027,
6626.000,3.5339,
6625.000,3.54125,
6624.000,3.55223,
6623.000,3.56345,
6622.000,3.56984,
6621.000,3.56996,
6620.000,3.56812,
6619.000,3.56935,
6618.000,3.57339,
6617.000,3.57646,
6616.000,3.57784,
6615.000,3.581,
6614.000,3.58742,
6613.000,3.59311,
6612.000,3.59344,
6611.000,3.58949,
6610.000,3.58676,
6609.000,3.58863,
6608.000,3.5938,
6607.000,3.6001,
6606.000,3.60786,
6605.000,3.61814,
6604.000,3.62935,
6603.000,3.63818,
6602.000,3.64382,
6601.000,3.64936,
6600.000,3.65827,
6599.000,3.67049,
6598.000,3.68282,
6597.000,3.69222,
6596.000,3.6979,
6595.000,3.7006,
6594.000,3.70133,
6593.000,3.70097,
6592.000,3.70052,
6591.000,3.70139,
6590.000,3.70566,
6589.000,3.71513,
6588.000,3.72937,
6587.000,3.74499,
6586.000,3.75817,
6585.000,3.76763,
6584.000,3.77443,
6583.000,3.77951,
6582.000,3.78351,
6581.000,3.78879,
6580.000,3.79905,
6579.000,3.81551,
6578.000,3.83481,
6577.000,3.85217,
6576.000,3.86588,
6575.000,3.87726,
6574.000,3.88729,
6573.000,3.89572,
6572.000,3.9034,
6571.000,3.91328,
6570.000,3.92739,
6569.000,3.9439,
6568.000,3.95876,
6567.000,3.97033,
6566.000,3.98146,
6565.000,3.99623,
6564.000,4.01561,
6563.000,4.03671,
6562.000,4.0558,
6561.000,4.07108,
6560.000,4.08299,
6559.000,4.09328,
6558.000,4.10438,
6557.000,4.1184,
6556.000,4.13593,
6555.000,4.15585,
6554.000,4.17655,
6553.000,4.19656,
6552.000,4.21371,
6551.000,4.22576,
6550.000,4.23313,
6549.000,4.24014,
6548.000,4.25149,
6547.000,4.26815,
6546.000,4.28771,
6545.000,4.30844,
6544.000,4.33081,
6543.000,4.35526,
6542.000,4.3802,
6541.000,4.4035,
6540.000,4.42512,
6539.000,4.44732,
6538.000,4.47214,
6537.000,4.49852,
6536.000,4.52245,
6535.000,4.54076,
6534.000,4.55486,
6533.000,4.56927,
6532.000,4.58633,
6531.000,4.60447,
6530.000,4.62275,
6529.000,4.64443,
6528.000,4.6733,
6527.000,4.70818,
6526.000,4.74376,
6525.000,4.7761,
6524.000,4.80457,
6523.000,4.82964,
6522.000,4.85197,
6521.000,4.87337,
6520.000,4.89568,
6519.000,4.91858,
6518.000,4.94132,
6517.000,4.96554,
6516.000,4.99319,
6515.000,5.02196,
6514.000,5.04718,
6513.000,5.06855,
6512.000,5.09101,
6511.000,5.11754,
6510.000,5.14546,
6509.000,5.17179,
6508.000,5.19819,
6507.000,5.22743,
6506.000,5.25818,
6505.000,5.28686,
6504.000,5.31304,
6503.000,5.33951,
6502.000,5.36847,
6501.000,5.4002,
6500.000,5.43467,
6499.000,5.47165,
6498.000,5.50964,
6497.000,5.54682,
6496.000,5.58276,
6495.000,5.61747,
6494.000,5.64951,
6493.000,5.67709,
6492.000,5.70112,
6491.000,5.72532,
6490.000,5.75304,
6489.000,5.78497,
6488.000,5.81964,
6487.000,5.85516,
6486.000,5.89044,
6485.000,5.92532,
6484.000,5.95999,
6483.000,5.99452,
6482.000,6.02943,
6481.000,6.06615,
6480.000,6.10572,
6479.000,6.14724,
6478.000,6.18879,
6477.000,6.22981,
6476.000,6.27106,
6475.000,6.31233,
6474.000,6.35246,
6473.000,6.39173,
6472.000,6.43196,
6471.000,6.47357,
6470.000,6.51487,
6469.000,6.5549,
6468.000,6.59499,
6467.000,6.63616,
6466.000,6.6777,
6465.000,6.7196,
6464.000,6.76405,
6463.000,6.81226,
6462.000,6.86158,
6461.000,6.90787,
6460.000,6.94973,
6459.000,6.98876,
6458.000,7.02698,
6457.000,7.06571,
6456.000,7.10637,
6455.000,7.15049,
6454.000,7.1986,
6453.000,7.24968,
6452.000,7.30124,
6451.000,7.35014,
6450.000,7.39509,
6449.000,7.43869,
6448.000,7.48551,
6447.000,7.53771,
6446.000,7.59343,
6445.000,7.64939,
6444.000,7.70304,
6443.000,7.75236,
6442.000,7.79662,
6441.000,7.8384,
6440.000,7.88243,
6439.000,7.93108,
6438.000,7.9828,
6437.000,8.03567,
6436.000,8.08975,
6435.000,8.1451,
6434.000,8.20053,
6433.000,8.25589,
6432.000,8.31296,
6431.000,8.37225,
6430.000,8.43118,
6429.000,8.4873,
6428.000,8.5409,
6427.000,8.59276,
6426.000,8.64188,
6425.000,8.68794,
6424.000,8.73384,
6423.000,8.78325,
6422.000,8.83709,
6421.000,8.89427,
6420.000,8.95431,
6419.000,9.01687,
6418.000,9.08024,
6417.000,9.14198,
6416.000,9.20036,
6415.000,9.25423,
6414.000,9.30346,
6413.000,9.35092,
6412.000,9.40157,
6411.000,9.45776,
6410.000,9.51689,
6409.000,9.57536,
6408.000,9.63227,
6407.000,9.68795,
6406.000,9.74126,
6405.000,9.79122,
6404.000,9.83925,
6403.000,9.88734,
6402.000,9.93561,
6401.000,9.98371,
6400.000,10.033,
6399.000,10.085,
6398.000,10.1383,
6397.000,10.1904,
6396.000,10.2403,
6395.000,10.2888,
6394.000,10.3362,
6393.000,10.3823,
6392.000,10.4274,
6391.000,10.472,
6390.000,10.5166,
6389.000,10.5617,
6388.000,10.6063,
6387.000,10.6474,
6386.000,10.682,
6385.000,10.712,
6384.000,10.7432,
6383.000,10.7787,
6382.000,10.8155,
6381.000,10.849,
6380.000,10.8791,
6379.000,10.908,
6378.000,10.9369,
6377.000,10.9644,
6376.000,10.9893,
6375.000,11.0118,
6374.000,11.0325,
6373.000,11.0528,
6372.000,11.0736,
6371.000,11.0937,
6370.000,11.1103,
6369.000,11.1235,
6368.000,11.1359,
6367.000,11.1485,
6366.000,11.1584,
6365.000,11.163,
6364.000,11.1643,
6363.000,11.1654,
6362.000,11.1669,
6361.000,11.1662,
6360.000,11.162,
6359.000,11.1548,
6358.000,11.1453,
6357.000,11.1343,
6356.000,11.1221,
6355.000,11.1089,
6354.000,11.0946,
6353.000,11.0797,
6352.000,11.0638,
6351.000,11.046,
6350.000,11.0257,
6349.000,11.0046,
6348.000,10.9841,
6347.000,10.9623,
6346.000,10.9373,
6345.000,10.9102,
6344.000,10.8831,
6343.000,10.8545,
6342.000,10.8214,
6341.000,10.785,
6340.000,10.7504,
6339.000,10.7186,
6338.000,10.6854,
6337.000,10.649,
6336.000,10.6129,
6335.000,10.5787,
6334.000,10.5423,
6333.000,10.5,
6332.000,10.4545,
6331.000,10.4104,
6330.000,10.3677,
6329.000,10.324,
6328.000,10.2796,
6327.000,10.2369,
6326.000,10.1956,
6325.000,10.1532,
6324.000,10.1084,
6323.000,10.0616,
6322.000,10.0132,
6321.000,9.96324,
6320.000,9.91271,
6319.000,9.86232,
6318.000,9.81159,
6317.000,9.76064,
6316.000,9.71141,
6315.000,9.66552,
6314.000,9.62207,
6313.000,9.57931,
6312.000,9.53652,
6311.000,9.49256,
6310.000,9.44474,
6309.000,9.39193,
6308.000,9.33729,
6307.000,9.28523,
6306.000,9.23676,
6305.000,9.19001,
6304.000,9.14392,
6303.000,9.09869,
6302.000,9.05311,
6301.000,9.00474,
6300.000,8.95319,
6299.000,8.90095,
6298.000,8.85057,
6297.000,8.80249,
6296.000,8.75619,
6295.000,8.71147,
6294.000,8.66769,
6293.000,8.62304,
6292.000,8.57603,
6291.000,8.5272,
6290.000,8.47809,
6289.000,8.42894,
6288.000,8.37854,
6287.000,8.32699,
6286.000,8.27714,
6285.000,8.23181,
6284.000,8.19007,
6283.000,8.14814,
6282.000,8.10416,
6281.000,8.05969,
6280.000,8.01602,
6279.000,7.97126,
6278.000,7.92336,
6277.000,7.87389,
6276.000,7.82634,
6275.000,7.78166,
6274.000,7.7379,
6273.000,7.69366,
6272.000,7.64949,
6271.000,7.60588,
6270.000,7.56267,
6269.000,7.52035,
6268.000,7.47982,
6267.000,7.44016,
6266.000,7.39895,
6265.000,7.35509,
6264.000,7.30975,
6263.000,7.26426,
6262.000,7.21877,
6261.000,7.1736,
6260.000,7.12995,
6259.000,7.08846,
6258.000,7.04806,
6257.000,7.00728,
6256.000,6.9658,
6255.000,6.92441,
6254.000,6.88437,
6253.000,6.84658,
6252.000,6.81048,
6251.000,6.77385,
6250.000,6.73478,
6249.000,6.69389,
6248.000,6.65328,
6247.000,6.61384,
6246.000,6.57472,
6245.000,6.53525,
6244.000,6.49567,
6243.000,6.45603,
6242.000,6.41598,
6241.000,6.37597,
6240.000,6.33711,
6239.000,6.29964,
6238.000,6.26282,
6237.000,6.22613,
6236.000,6.18949,
6235.000,6.15194,
6234.000,6.11204,
6233.000,6.0701,
6232.000,6.02882,
6231.000,5.99084,
6230.000,5.95661,
6229.000,5.92482,
6228.000,5.89414,
6227.000,5.86357,
6226.000,5.83182,
6225.000,5.79751,
6224.000,5.7604,
6223.000,5.72244,
6222.000,5.68681,
6221.000,5.65505,
6220.000,5.62515,
6219.000,5.5936,
6218.000,5.5594,
6217.000,5.52461,
6216.000,5.49083,
6215.000,5.45707,
6214.000,5.42229,
6213.000,5.38764,
6212.000,5.35463,
6211.000,5.32238,
6210.000,5.28929,
6209.000,5.25614,
6208.000,5.22551,
6207.000,5.19827,
6206.000,5.17243,
6205.000,5.14488,
6204.000,5.11292,
6203.000,5.07526,
6202.000,5.0337,
6201.000,4.99312,
6200.000,4.95757,
6199.000,4.92655,
6198.000,4.89684,
6197.000,4.86701,
6196.000,4.83789,
6195.000,4.80954,
6194.000,4.78086,
6193.000,4.75234,
6192.000,4.72622,
6191.000,4.70293,
6190.000,4.67958,
6189.000,4.65296,
6188.000,4.62242,
6187.000,4.58901,
6186.000,4.5539,
6185.000,4.51892,
6184.000,4.48672,
6183.000,4.45871,
6182.000,4.4333,
6181.000,4.40729,
6180.000,4.3788,
6179.000,4.34837,
6178.000,4.3178,
6177.000,4.2888,
6176.000,4.262,
6175.000,4.23659,
6174.000,4.21061,
6173.000,4.18216,
6172.000,4.15058,
6171.000,4.11685,
6170.000,4.08307,
6169.000,4.05159,
6168.000,4.02404,
6167.000,4.00101,
6166.000,3.98184,
6165.000,3.96431,
6164.000,3.94506,
6163.000,3.92184,
6162.000,3.89575,
6161.000,3.86997,
6160.000,3.8461,
6159.000,3.82307,
6158.000,3.80017,
6157.000,3.77875,
6156.000,3.75933,
6155.000,3.73905,
6154.000,3.71443,
6153.000,3.68589,
6152.000,3.65726,
6151.000,3.63126,
6150.000,3.60771,
6149.000,3.58599,
6148.000,3.56645,
6147.000,3.5486,
6146.000,3.53002,
6145.000,3.50851,
6144.000,3.48471,
6143.000,3.46149,
6142.000,3.44116,
6141.000,3.42389,
6140.000,3.40804,
6139.000,3.39156,
6138.000,3.37303,
6137.000,3.35208,
6136.000,3.32934,
6135.000,3.30626,
6134.000,3.285,
6133.000,3.26737,
6132.000,3.25354,
6131.000,3.24203,
6130.000,3.2313,
6129.000,3.22064,
6128.000,3.20947,
6127.000,3.19664,
6126.000,3.1815,
6125.000,3.16494,
6124.000,3.14828,
6123.000,3.13163,
6122.000,3.11423,
6121.000,3.0961,
6120.000,3.0785,
6119.000,3.06263,
6118.000,3.04866,
6117.000,3.03598,
6116.000,3.02398,
6115.000,3.01244,
6114.000,3.0014,
6113.000,2.99051,
6112.000,2.979,
6111.000,2.96664,
6110.000,2.9544,
6109.000,2.94313,
6108.000,2.9321,
6107.000,2.92019,
6106.000,2.90821,
6105.000,2.89827,
6104.000,2.89063,
6103.000,2.88325,
6102.000,2.87486,
6101.000,2.86616,
6100.000,2.85691,
6099.000,2.84483,
6098.000,2.82938,
6097.000,2.8144,
6096.000,2.8044,
6095.000,2.7995,
6094.000,2.79654,
6093.000,2.79377,
6092.000,2.79141,
6091.000,2.78844,
6090.000,2.78214,
6089.000,2.77173,
6088.000,2.75977,
6087.000,2.7493,
6086.000,2.74104,
6085.000,2.73403,
6084.000,2.72757,
6083.000,2.7218,
6082.000,2.71722,
6081.000,2.71405,
6080.000,2.71161,
6079.000,2.70848,
6078.000,2.70401,
6077.000,2.69914,
6076.000,2.69506,
6075.000,2.69152,
6074.000,2.68766,
6073.000,2.68372,
6072.000,2.68052,
6071.000,2.67791,
6070.000,2.67503,
6069.000,2.67186,
6068.000,2.66907,
6067.000,2.66673,
6066.000,2.66448,
6065.000,2.66243,
6064.000,2.66053,
6063.000,2.65774,
6062.000,2.65356,
6061.000,2.64979,
6060.000,2.64911,
6059.000,2.65202,
6058.000,2.65694,
6057.000,2.66279,
6056.000,2.66926,
6055.000,2.67462,
6054.000,2.67599,
6053.000,2.6726,
6052.000,2.66694,
6051.000,2.662,
6050.000,2.6588,
6049.000,2.65727,
6048.000,2.65776,
6047.000,2.66047,
6046.000,2.66485,
6045.000,2.67029,
6044.000,2.67656,
6043.000,2.6829,
6042.000,2.68802,
6041.000,2.69114,
6040.000,2.69231,
6039.000,2.69149,
6038.000,2.68904,
6037.000,2.68735,
6036.000,2.69003,
6035.000,2.69832,
6034.000,2.70947,
6033.000,2.71995,
6032.000,2.72877,
6031.000,2.73674,
6030.000,2.74398,
6029.000,2.74997,
6028.000,2.75524,
6027.000,2.76122,
6026.000,2.76861,
6025.000,2.77693,
6024.000,2.78554,
6023.000,2.79421,
6022.000,2.803,
6021.000,2.81218,
6020.000,2.82192,
6019.000,2.83165,
6018.000,2.84025,
6017.000,2.84775,
6016.000,2.85597,
6015.000,2.86653,
6014.000,2.87858,
6013.000,2.88976,
6012.000,2.89917,
6011.000,2.90823,
6010.000,2.91832,
6009.000,2.92915,
6008.000,2.94008,
6007.000,2.95171,
6006.000,2.96502,
6005.000,2.97936,
6004.000,2.99263,
6003.000,3.00367,
6002.000,3.01365,
6001.000,3.02448,
6000.000,3.03685,
5999.000,3.05032,
5998.000,3.06491,
5997.000,3.08124,
5996.000,3.09896,
5995.000,3.11609,
5994.000,3.13063,
5993.000,3.1425,
5992.000,3.15346,
5991.000,3.16547,
5990.000,3.17951,
5989.000,3.19546,
5988.000,3.21257,
5987.000,3.22984,
5986.000,3.24641,
5985.000,3.26155,
5984.000,3.27478,
5983.000,3.28647,
5982.000,3.29819,
5981.000,3.31145,
5980.000,3.32589,
5979.000,3.33947,
5978.000,3.35096,
5977.000,3.36149,
5976.000,3.37293,
5975.000,3.3858,
5974.000,3.39941,
5973.000,3.41329,
5972.000,3.42784,
5971.000,3.44365,
5970.000,3.46084,
5969.000,3.47865,
5968.000,3.49579,
5967.000,3.51181,
5966.000,3.52791,
5965.000,3.54518,
5964.000,3.56225,
5963.000,3.57667,
5962.000,3.58883,
5961.000,3.60193,
5960.000,3.61725,
5959.000,3.6319,
5958.000,3.64328,
5957.000,3.65337,
5956.000,3.66595,
5955.000,3.68137,
5954.000,3.69688,
5953.000,3.71115,
5952.000,3.72542,
5951.000,3.7406,
5950.000,3.75638,
5949.000,3.77322,
5948.000,3.79244,
5947.000,3.81413,
5946.000,3.83676,
5945.000,3.85925,
5944.000,3.88129,
5943.000,3.90194,
5942.000,3.92009,
5941.000,3.93684,
5940.000,3.95478,
5939.000,3.9745,
5938.000,3.99407,
5937.000,4.01244,
5936.000,4.0313,
5935.000,4.05244,
5934.000,4.07545,
5933.000,4.0992,
5932.000,4.1239,
5931.000,4.15037,
5930.000,4.17843,
5929.000,4.20718,
5928.000,4.23608,
5927.000,4.26491,
5926.000,4.29326,
5925.000,4.32069,
5924.000,4.34685,
5923.000,4.37139,
5922.000,4.39453,
5921.000,4.41778,
5920.000,4.44312,
5919.000,4.47132,
5918.000,4.50175,
5917.000,4.53342,
5916.000,4.56522,
5915.000,4.59571,
5914.000,4.62425,
5913.000,4.65209,
5912.000,4.68065,
5911.000,4.70946,
5910.000,4.73748,
5909.000,4.76597,
5908.000,4.79728,
5907.000,4.83094,
5906.000,4.86396,
5905.000,4.8953,
5904.000,4.92728,
5903.000,4.96143,
5902.000,4.99562,
5901.000,5.02727,
5900.000,5.05719,
5899.000,5.08819,
5898.000,5.12138,
5897.000,5.15579,
5896.000,5.19072,
5895.000,5.22678,
5894.000,5.26482,
5893.000,5.30495,
5892.000,5.34633,
5891.000,5.38756,
5890.000,5.4275,
5889.000,5.46618,
5888.000,5.50443,
5887.000,5.54275,
5886.000,5.58118,
5885.000,5.62016,
5884.000,5.66001,
5883.000,5.69998,
5882.000,5.73896,
5881.000,5.77719,
5880.000,5.81592,
5879.000,5.85559,
5878.000,5.89606,
5877.000,5.93825,
5876.000,5.98336,
5875.000,6.03021,
5874.000,6.07566,
5873.000,6.11828,
5872.000,6.15976,
5871.000,6.2024,
5870.000,6.24691,
5869.000,6.29302,
5868.000,6.34018,
5867.000,6.38675,
5866.000,6.43077,
5865.000,6.47249,
5864.000,6.51437,
5863.000,6.55823,
5862.000,6.60399,
5861.000,6.65165,
5860.000,6.70185,
5859.000,6.75353,
5858.000,6.80362,
5857.000,6.8505,
5856.000,6.89602,
5855.000,6.94279,
5854.000,6.99128,
5853.000,7.04092,
5852.000,7.09197,
5851.000,7.14423,
5850.000,7.19592,
5849.000,7.24561,
5848.000,7.29428,
5847.000,7.34371,
5846.000,7.39414,
5845.000,7.44515,
5844.000,7.49764,
5843.000,7.55296,
5842.000,7.61054,
5841.000,7.66807,
5840.000,7.72367,
5839.000,7.77691,
5838.000,7.8281,
5837.000,7.87776,
5836.000,7.92662,
5835.000,7.97555,
5834.000,8.02552,
5833.000,8.07745,
5832.000,8.13136,
5831.000,8.18558,
5830.000,8.23795,
5829.000,8.28844,
5828.000,8.33929,
5827.000,8.39219,
5826.000,8.44591,
5825.000,8.49747,
5824.000,8.54477,
5823.000,8.58808,
5822.000,8.62981,
5821.000,8.67332,
5820.000,8.72091,
5819.000,8.77253,
5818.000,8.82621,
5817.000,8.87922,
5816.000,8.92868,
5815.000,8.97265,
5814.000,9.01215,
5813.000,9.05128,
5812.000,9.09342,
5811.000,9.13799,
5810.000,9.18227,
5809.000,9.22515,
5808.000,9.26736,
5807.000,9.30897,
5806.000,9.34939,
5805.000,9.38904,
5804.000,9.42832,
5803.000,9.4656,
5802.000,9.49852,
5801.000,9.52731,
5800.000,9.55425,
5799.000,9.58029,
5798.000,9.60483,
5797.000,9.62836,
5796.000,9.65211,
5795.000,9.67517,
5794.000,9.69506,
5793.000,9.71127,
5792.000,9.72541,
5791.000,9.73782,
5790.000,9.74698,
5789.000,9.75276,
5788.000,9.75715,
5787.000,9.76114,
5786.000,9.76356,
5785.000,9.76367,
5784.000,9.76231,
5783.000,9.75986,
5782.000,9.75562,
5781.000,9.74995,
5780.000,9.74413,
5779.000,9.73755,
5778.000,9.72742,
5777.000,9.71225,
5776.000,9.69344,
5775.000,9.67286,
5774.000,9.65098,
5773.000,9.62791,
5772.000,9.60397,
5771.000,9.57856,
5770.000,9.55052,
5769.000,9.51994,
5768.000,9.48813,
5767.000,9.45556,
5766.000,9.4218,
5765.000,9.38697,
5764.000,9.35104,
5763.000,9.31235,
5762.000,9.26978,
5761.000,9.22605,
5760.000,9.18577,
5759.000,9.14981,
5758.000,9.1145,
5757.000,9.07643,
5756.000,9.03494,
5755.000,8.99002,
5754.000,8.94139,
5753.000,8.89107,
5752.000,8.84345,
5751.000,8.80068,
5750.000,8.76021,
5749.000,8.71783,
5748.000,8.67141,
5747.000,8.62099,
5746.000,8.56765,
5745.000,8.51371,
5744.000,8.46231,
5743.000,8.41507,
5742.000,8.37127,
5741.000,8.32913,
5740.000,8.28669,
5739.000,8.24164,
5738.000,8.19228,
5737.000,8.1394,
5736.000,8.08557,
5735.000,8.03282,
5734.000,7.98228,
5733.000,7.9352,
5732.000,7.89197,
5731.000,7.85043,
5730.000,7.80741,
5729.000,7.76194,
5728.000,7.71496,
5727.000,7.66673,
5726.000,7.6174,
5725.000,7.56929,
5724.000,7.52512,
5723.000,7.4839,
5722.000,7.44192,
5721.000,7.39776,
5720.000,7.35313,
5719.000,7.30859,
5718.000,7.26255,
5717.000,7.21513,
5716.000,7.16937,
5715.000,7.12687,
5714.000,7.08568,
5713.000,7.04417,
5712.000,7.0038,
5711.000,6.96603,
5710.000,6.9294,
5709.000,6.89159,
5708.000,6.85191,
5707.000,6.80985,
5706.000,6.764,
5705.000,6.71487,
5704.000,6.66662,
5703.000,6.62332,
5702.000,6.58506,
5701.000,6.54934,
5700.000,6.51455,
5699.000,6.47984,
5698.000,6.44349,
5697.000,6.40427,
5696.000,6.36364,
5695.000,6.32403,
5694.000,6.28601,
5693.000,6.24835,
5692.000,6.21093,
5691.000,6.17448,
5690.000,6.13857,
5689.000,6.10172,
5688.000,6.06321,
5687.000,6.02385,
5686.000,5.98472,
5685.000,5.94636,
5684.000,5.90931,
5683.000,5.87396,
5682.000,5.83994,
5681.000,5.8061,
5680.000,5.77141,
5679.000,5.73563,
5678.000,5.69933,
5677.000,5.6633,
5676.000,5.62768,
5675.000,5.59149,
5674.000,5.55347,
5673.000,5.51367,
5672.000,5.47367,
5671.000,5.43511,
5670.000,5.39864,
5669.000,5.36389,
5668.000,5.32973,
5667.000,5.29439,
5666.000,5.25656,
5665.000,5.21668,
5664.000,5.17671,
5663.000,5.13853,
5662.000,5.10317,
5661.000,5.07098,
5660.000,5.04131,
5659.000,5.01211,
5658.000,4.98128,
5657.000,4.94851,
5656.000,4.91467,
5655.000,4.87949,
5654.000,4.84183,
5653.000,4.80239,
5652.000,4.76408,
5651.000,4.72907,
5650.000,4.69694,
5649.000,4.66655,
5648.000,4.63768,
5647.000,4.60956,
5646.000,4.57985,
5645.000,4.54685,
5644.000,4.5118,
5643.000,4.47745,
5642.000,4.44497,
5641.000,4.41368,
5640.000,4.38306,
5639.000,4.35334,
5638.000,4.32412,
5637.000,4.29421,
5636.000,4.26294,
5635.000,4.23095,
5634.000,4.19933,
5633.000,4.16856,
5632.000,4.13841,
5631.000,4.10837,
5630.000,4.07793,
5629.000,4.04667,
5628.000,4.01423,
5627.000,3.9805,
5626.000,3.9461,
5625.000,3.91241,
5624.000,3.88064,
5623.000,3.85077,
5622.000,3.82202,
5621.000,3.79399,
5620.000,3.76671,
5619.000,3.73972,
5618.000,3.71238,
5617.000,3.68497,
5616.000,3.65838,
5615.000,3.63221,
5614.000,3.6047,
5613.000,3.57497,
5612.000,3.54435,
5611.000,3.51447,
5610.000,3.48545,
5609.000,3.45676,
5608.000,3.42892,
5607.000,3.40269,
5606.000,3.37741,
5605.000,3.35144,
5604.000,3.32426,
5603.000,3.297,
5602.000,3.2709,
5601.000,3.24606,
5600.000,3.22183,
5599.000,3.19752,
5598.000,3.17264,
5597.000,3.14716,
5596.000,3.12178,
5595.000,3.09752,
5594.000,3.0749,
5593.000,3.05376,
5592.000,3.03365,
5591.000,3.01371,
5590.000,2.99247,
5589.000,2.96868,
5588.000,2.9428,
5587.000,2.91714,
5586.000,2.89391,
5585.000,2.87345,
5584.000,2.85451,
5583.000,2.8359,
5582.000,2.81732,
5581.000,2.79877,
5580.000,2.77974,
5579.000,2.75955,
5578.000,2.73814,
5577.000,2.71628,
5576.000,2.69489,
5575.000,2.67445,
5574.000,2.6552,
5573.000,2.6374,
5572.000,2.62095,
5571.000,2.60474,
5570.000,2.58703,
5569.000,2.56684,
5568.000,2.54478,
5567.000,2.52276,
5566.000,2.50276,
5565.000,2.48586,
5564.000,2.47173,
5563.000,2.4589,
5562.000,2.44571,
5561.000,2.43124,
5560.000,2.41551,
5559.000,2.39879,
5558.000,2.38126,
5557.000,2.36325,
5556.000,2.34553,
5555.000,2.32908,
5554.000,2.31448,
5553.000,2.30153,
5552.000,2.28923,
5551.000,2.27624,
5550.000,2.26182,
5549.000,2.2466,
5548.000,2.23203,
5547.000,2.21922,
5546.000,2.2081,
5545.000,2.1979,
5544.000,2.18785,
5543.000,2.17743,
5542.000,2.16652,
5541.000,2.15547,
5540.000,2.14466,
5539.000,2.13369,
5538.000,2.12137,
5537.000,2.10703,
5536.000,2.09149,
5535.000,2.07656,
5534.000,2.06344,
5533.000,2.05196,
5532.000,2.04126,
5531.000,2.0308,
5530.000,2.02074,
5529.000,2.01151,
5528.000,2.00341,
5527.000,1.99626,
5526.000,1.9893,
5525.000,1.98153,
5524.000,1.97232,
5523.000,1.96201,
5522.000,1.95164,
5521.000,1.94216,
5520.000,1.93376,
5519.000,1.92593,
5518.000,1.91814,
5517.000,1.91031,
5516.000,1.90255,
5515.000,1.89485,
5514.000,1.88698,
5513.000,1.87884,
5512.000,1.87055,
5511.000,1.86238,
5510.000,1.85479,
5509.000,1.84828,
5508.000,1.84324,
5507.000,1.83954,
5506.000,1.83669,
5505.000,1.83408,
5504.000,1.83111,
5503.000,1.82716,
5502.000,1.82175,
5501.000,1.81487,
5500.000,1.80708,
5499.000,1.79944,
5498.000,1.79317,
5497.000,1.78912,
5496.000,1.78705,
5495.000,1.78556,
5494.000,1.78285,
5493.000,1.77804,
5492.000,1.77163,
5491.000,1.76503,
5490.000,1.75971,
5489.000,1.75651,
5488.000,1.75525,
5487.000,1.75497,
5486.000,1.7545,
5485.000,1.75323,
5484.000,1.75114,
5483.000,1.7486,
5482.000,1.74627,
5481.000,1.74517,
5480.000,1.74618,
5479.000,1.74913,
5478.000,1.75262,
5477.000,1.75475,
5476.000,1.75416,
5475.000,1.7508,
5474.000,1.74621,
5473.000,1.74278,
5472.000,1.74232,
5471.000,1.74485,
5470.000,1.74887,
5469.000,1.75257,
5468.000,1.75487,
5467.000,1.75567,
5466.000,1.75573,
5465.000,1.75636,
5464.000,1.75867,
5463.000,1.76277,
5462.000,1.76779,
5461.000,1.77292,
5460.000,1.77793,
5459.000,1.78259,
5458.000,1.7863,
5457.000,1.78871,
5456.000,1.79048,
5455.000,1.79277,
5454.000,1.79626,
5453.000,1.80077,
5452.000,1.80574,
5451.000,1.81076,
5450.000,1.81575,
5449.000,1.8211,
5448.000,1.82739,
5447.000,1.83454,
5446.000,1.84158,
5445.000,1.84767,
5444.000,1.85322,
5443.000,1.85944,
5442.000,1.86682,
5441.000,1.87483,
5440.000,1.88286,
5439.000,1.89084,
5438.000,1.89858,
5437.000,1.90562,
5436.000,1.91199,
5435.000,1.91851,
5434.000,1.92583,
5433.000,1.93374,
5432.000,1.9419,
5431.000,1.95072,
5430.000,1.96069,
5429.000,1.971,
5428.000,1.97983,
5427.000,1.98622,
5426.000,1.99129,
5425.000,1.99721,
5424.000,2.00535,
5423.000,2.0156,
5422.000,2.02696,
5421.000,2.0385,
5420.000,2.04989,
5419.000,2.06171,
5418.000,2.07511,
5417.000,2.09086,
5416.000,2.10795,
5415.000,2.1238,
5414.000,2.1362,
5413.000,2.14508,
5412.000,2.15238,
5411.000,2.16038,
5410.000,2.17048,
5409.000,2.18297,
5408.000,2.19727,
5407.000,2.21207,
5406.000,2.22601,
5405.000,2.23883,
5404.000,2.25153,
5403.000,2.26525,
5402.000,2.28006,
5401.000,2.29517,
5400.000,2.31021,
5399.000,2.32583,
5398.000,2.34278,
5397.000,2.36067,
5396.000,2.37805,
5395.000,2.39361,
5394.000,2.40699,
5393.000,2.41879,
5392.000,2.43007,
5391.000,2.44227,
5390.000,2.45657,
5389.000,2.47293,
5388.000,2.48988,
5387.000,2.50584,
5386.000,2.52062,
5385.000,2.53536,
5384.000,2.55093,
5383.000,2.56739,
5382.000,2.58499,
5381.000,2.60438,
5380.000,2.62552,
5379.000,2.64699,
5378.000,2.66698,
5377.000,2.68462,
5376.000,2.70017,
5375.000,2.7144,
5374.000,2.7286,
5373.000,2.74439,
5372.000,2.76263,
5371.000,2.78265,
5370.000,2.80314,
5369.000,2.82351,
5368.000,2.84393,
5367.000,2.86423,
5366.000,2.88381,
5365.000,2.9025,
5364.000,2.92073,
5363.000,2.939,
5362.000,2.95775,
5361.000,2.97739,
5360.000,2.99787,
5359.000,3.01861,
5358.000,3.03952,
5357.000,3.06183,
5356.000,3.08677,
5355.000,3.11367,
5354.000,3.14035,
5353.000,3.16514,
5352.000,3.18761,
5351.000,3.20767,
5350.000,3.22579,
5349.000,3.24426,
5348.000,3.26633,
5347.000,3.29302,
5346.000,3.32177,
5345.000,3.34918,
5344.000,3.37402,
5343.000,3.39728,
5342.000,3.42043,
5341.000,3.44442,
5340.000,3.46959,
5339.000,3.49561,
5338.000,3.52151,
5337.000,3.5466,
5336.000,3.57139,
5335.000,3.59715,
5334.000,3.6246,
5333.000,3.6531,
5332.000,3.68128,
5331.000,3.70816,
5330.000,3.73407,
5329.000,3.76052,
5328.000,3.78885,
5327.000,3.81872,
5326.000,3.84843,
5325.000,3.87697,
5324.000,3.9051,
5323.000,3.93415,
5322.000,3.96439,
5321.000,3.99514,
5320.000,4.02552,
5319.000,4.05481,
5318.000,4.08289,
5317.000,4.11081,
5316.000,4.14032,
5315.000,4.17229,
5314.000,4.2058,
5313.000,4.23957,
5312.000,4.27342,
5311.000,4.30807,
5310.000,4.34394,
5309.000,4.38079,
5308.000,4.41832,
5307.000,4.45627,
5306.000,4.49417,
5305.000,4.53148,
5304.000,4.56812,
5303.000,4.60454,
5302.000,4.64122,
5301.000,4.67839,
5300.000,4.71584,
5299.000,4.75305,
5298.000,4.78969,
5297.000,4.82612,
5296.000,4.86305,
5295.000,4.90077,
5294.000,4.9392,
5293.000,4.9786,
5292.000,5.01961,
5291.000,5.06245,
5290.000,5.10691,
5289.000,5.15281,
5288.000,5.19969,
5287.000,5.24599,
5286.000,5.28984,
5285.000,5.33109,
5284.000,5.37146,
5283.000,5.4126,
5282.000,5.45478,
5281.000,5.49796,
5280.000,5.54256,
5279.000,5.58846,
5278.000,5.63456,
5277.000,5.68028,
5276.000,5.72648,
5275.000,5.77387,
5274.000,5.82161,
5273.000,5.86855,
5272.000,5.91483,
5271.000,5.96116,
5270.000,6.00768,
5269.000,6.05445,
5268.000,6.10255,
5267.000,6.15301,
5266.000,6.2053,
5265.000,6.25813,
5264.000,6.31114,
5263.000,6.36482,
5262.000,6.41885,
5261.000,6.47223,
5260.000,6.52459,
5259.000,6.57628,
5258.000,6.62728,
5257.000,6.6771,
5256.000,6.72591,
5255.000,6.77478,
5254.000,6.82445,
5253.000,6.87466,
5252.000,6.92489,
5251.000,6.97491,
5250.000,7.0247,
5249.000,7.07458,
5248.000,7.12512,
5247.000,7.17655,
5246.000,7.22826,
5245.000,7.27962,
5244.000,7.33064,
5243.000,7.38147,
5242.000,7.43136,
5241.000,7.47923,
5240.000,7.52492,
5239.000,7.56924,
5238.000,7.61286,
5237.000,7.65553,
5236.000,7.69643,
5235.000,7.7352,
5234.000,7.77239,
5233.000,7.80901,
5232.000,7.84575,
5231.000,7.88282,
5230.000,7.92025,
5229.000,7.95793,
5228.000,7.99516,
5227.000,8.03089,
5226.000,8.06473,
5225.000,8.09763,
5224.000,8.1307,
5223.000,8.16341,
5222.000,8.19367,
5221.000,8.21998,
5220.000,8.2424,
5219.000,8.2617,
5218.000,8.27838,
5217.000,8.29274,
5216.000,8.30478,
5215.000,8.31399,
5214.000,8.32012,
5213.000,8.32423,
5212.000,8.32802,
5211.000,8.3318,
5210.000,8.33432,
5209.000,8.3345,
5208.000,8.33264,
5207.000,8.32972,
5206.000,8.32673,
5205.000,8.3242,
5204.000,8.32127,
5203.000,8.31533,
5202.000,8.30402,
5201.000,8.28767,
5200.000,8.26862,
5199.000,8.24856,
5198.000,8.22749,
5197.000,8.20464,
5196.000,8.17937,
5195.000,8.15113,
5194.000,8.12,
5193.000,8.08763,
5192.000,8.05642,
5191.000,8.02712,
5190.000,7.99809,
5189.000,7.96721,
5188.000,7.9336,
5187.000,7.89737,
5186.000,7.8591,
5185.000,7.81986,
5184.000,7.78062,
5183.000,7.74115,
5182.000,7.70028,
5181.000,7.65771,
5180.000,7.61447,
5179.000,7.5716,
5178.000,7.52919,
5177.000,7.48695,
5176.000,7.44467,
5175.000,7.40182,
5174.000,7.35782,
5173.000,7.3129,
5172.000,7.26799,
5171.000,7.22339,
5170.000,7.17835,
5169.000,7.1322,
5168.000,7.08506,
5167.000,7.03727,
5166.000,6.98917,
5165.000,6.94147,
5164.000,6.89496,
5163.000,6.84943,
5162.000,6.80391,
5161.000,6.75811,
5160.000,6.71274,
5159.000,6.66827,
5158.000,6.6242,
5157.000,6.57988,
5156.000,6.53513,
5155.000,6.48972,
5154.000,6.44344,
5153.000,6.39714,
5152.000,6.35261,
5151.000,6.31091,
5150.000,6.27106,
5149.000,6.23105,
5148.000,6.18948,
5147.000,6.14587,
5146.000,6.10036,
5145.000,6.05397,
5144.000,6.00843,
5143.000,5.96498,
5142.000,5.92341,
5141.000,5.8818,
5140.000,5.83845,
5139.000,5.79287,
5138.000,5.74603,
5137.000,5.69964,
5136.000,5.65529,
5135.000,5.6136,
5134.000,5.57435,
5133.000,5.53675,
5132.000,5.49963,
5131.000,5.46162,
5130.000,5.42177,
5129.000,5.38031,
5128.000,5.33836,
5127.000,5.29702,
5126.000,5.25694,
5125.000,5.21839,
5124.000,5.18123,
5123.000,5.14453,
5122.000,5.10707,
5121.000,5.06845,
5120.000,5.02931,
5119.000,4.99036,
5118.000,4.95157,
5117.000,4.91253,
5116.000,4.87316,
5115.000,4.83374,
5114.000,4.79473,
5113.000,4.75653,
5112.000,4.71941,
5111.000,4.68321,
5110.000,4.64732,
5109.000,4.61105,
5108.000,4.57414,
5107.000,4.53707,
5106.000,4.50079,
5105.000,4.46614,
5104.000,4.43315,
5103.000,4.40081,
5102.000,4.36778,
5101.000,4.33334,
5100.000,4.29766,
5099.000,4.26139,
5098.000,4.22512,
5097.000,4.18915,
5096.000,4.15365,
5095.000,4.11899,
5094.000,4.0858,
5093.000,4.05443,
5092.000,4.02432,
5091.000,3.99418,
5090.000,3.96284,
5089.000,3.93008,
5088.000,3.89651,
5087.000,3.86311,
5086.000,3.8307,
5085.000,3.79924,
5084.000,3.76783,
5083.000,3.73558,
5082.000,3.70269,
5081.000,3.67014,
5080.000,3.63853,
5079.000,3.60777,
5078.000,3.5779,
5077.000,3.5492,
5076.000,3.52128,
5075.000,3.49281,
5074.000,3.46277,
5073.000,3.43136,
5072.000,3.39955,
5071.000,3.36816,
5070.000,3.33786,
5069.000,3.30911,
5068.000,3.28164,
5067.000,3.25435,
5066.000,3.22653,
5065.000,3.19865,
5064.000,3.17143,
5063.000,3.1446,
5062.000,3.11715,
5061.000,3.08855,
5060.000,3.05908,
5059.000,3.02941,
5058.000,3.00039,
5057.000,2.9729,
5056.000,2.94705,
5055.000,2.92191,
5054.000,2.89625,
5053.000,2.86971,
5052.000,2.84269,
5051.000,2.81556,
5050.000,2.7885,
5049.000,2.76175,
5048.000,2.73545,
5047.000,2.70952,
5046.000,2.68403,
5045.000,2.65951,
5044.000,2.63619,
5043.000,2.61326,
5042.000,2.58967,
5041.000,2.56533,
5040.000,2.54112,
5039.000,2.51788,
5038.000,2.49582,
5037.000,2.47468,
5036.000,2.4538,
5035.000,2.43233,
5034.000,2.40994,
5033.000,2.38735,
5032.000,2.36558,
5031.000,2.34486,
5030.000,2.32465,
5029.000,2.30457,
5028.000,2.28456,
5027.000,2.26443,
5026.000,2.24402,
5025.000,2.22356,
5024.000,2.20342,
5023.000,2.18346,
5022.000,2.16322,
5021.000,2.14253,
5020.000,2.12145,
5019.000,2.10006,
5018.000,2.07885,
5017.000,2.05907,
5016.000,2.04167,
5015.000,2.026,
5014.000,2.01042,
5013.000,1.99416,
5012.000,1.97783,
5011.000,1.96216,
5010.000,1.94715,
5009.000,1.9324,
5008.000,1.9175,
5007.000,1.90173,
5006.000,1.88447,
5005.000,1.86635,
5004.000,1.84918,
5003.000,1.83414,
5002.000,1.82069,
5001.000,1.80746,
5000.000,1.79363,
4999.000,1.77891,
4998.000,1.76305,
4997.000,1.74629,
4996.000,1.7298,
4995.000,1.71501,
4994.000,1.70228,
4993.000,1.69091,
4992.000,1.68006,
4991.000,1.66924,
4990.000,1.65796,
4989.000,1.64579,
4988.000,1.63285,
4987.000,1.61978,
4986.000,1.60714,
4985.000,1.59484,
4984.000,1.58231,
4983.000,1.56903,
4982.000,1.55503,
4981.000,1.54086,
4980.000,1.52728,
4979.000,1.51483,
4978.000,1.50368,
4977.000,1.49364,
4976.000,1.48434,
4975.000,1.47527,
4974.000,1.46618,
4973.000,1.45717,
4972.000,1.44824,
4971.000,1.43898,
4970.000,1.42901,
4969.000,1.41889,
4968.000,1.40966,
4967.000,1.40141,
4966.000,1.39288,
4965.000,1.38283,
4964.000,1.37135,
4963.000,1.35946,
4962.000,1.34806,
4961.000,1.33764,
4960.000,1.32852,
4959.000,1.32074,
4958.000,1.31382,
4957.000,1.30724,
4956.000,1.30087,
4955.000,1.29442,
4954.000,1.28676,
4953.000,1.27673,
4952.000,1.26476,
4951.000,1.25298,
4950.000,1.24363,
4949.000,1.23742,
4948.000,1.2333,
4947.000,1.22943,
4946.000,1.22438,
4945.000,1.21805,
4944.000,1.21151,
4943.000,1.20581,
4942.000,1.20073,
4941.000,1.19509,
4940.000,1.18819,
4939.000,1.18065,
4938.000,1.17386,
4937.000,1.16898,
4936.000,1.16619,
4935.000,1.16445,
4934.000,1.16184,
4933.000,1.15694,
4932.000,1.15005,
4931.000,1.14293,
4930.000,1.13703,
4929.000,1.13248,
4928.000,1.12861,
4927.000,1.12491,
4926.000,1.12109,
4925.000,1.11692,
4924.000,1.11249,
4923.000,1.10838,
4922.000,1.10494,
4921.000,1.10188,
4920.000,1.09869,
4919.000,1.09541,
4918.000,1.09247,
4917.000,1.09015,
4916.000,1.08849,
4915.000,1.08754,
4914.000,1.08726,
4913.000,1.08721,
4912.000,1.08684,
4911.000,1.0861,
4910.000,1.08541,
4909.000,1.08518,
4908.000,1.08541,
4907.000,1.08573,
4906.000,1.08557,
4905.000,1.08454,
4904.000,1.08294,
4903.000,1.08172,
4902.000,1.08164,
4901.000,1.08254,
4900.000,1.08359,
4899.000,1.08405,
4898.000,1.08382,
4897.000,1.08328,
4896.000,1.08326,
4895.000,1.08474,
4894.000,1.08809,
4893.000,1.09246,
4892.000,1.09643,
4891.000,1.09919,
4890.000,1.10104,
4889.000,1.10275,
4888.000,1.10495,
4887.000,1.10809,
4886.000,1.11208,
4885.000,1.11605,
4884.000,1.11883,
4883.000,1.12009,
4882.000,1.12079,
4881.000,1.12222,
4880.000,1.12484,
4879.000,1.12832,
4878.000,1.13222,
4877.000,1.13637,
4876.000,1.14068,
4875.000,1.14502,
4874.000,1.14922,
4873.000,1.153,
4872.000,1.15618,
4871.000,1.15914,
4870.000,1.16295,
4869.000,1.16838,
4868.000,1.17491,
4867.000,1.1811,
4866.000,1.18597,
4865.000,1.18998,
4864.000,1.19453,
4863.000,1.20081,
4862.000,1.20903,
4861.000,1.2184,
4860.000,1.22771,
4859.000,1.23606,
4858.000,1.24329,
4857.000,1.24974,
4856.000,1.25567,
4855.000,1.26094,
4854.000,1.26551,
4853.000,1.2699,
4852.000,1.27511,
4851.000,1.28186,
4850.000,1.28999,
4849.000,1.29856,
4848.000,1.30666,
4847.000,1.31411,
4846.000,1.32152,
4845.000,1.32971,
4844.000,1.33895,
4843.000,1.34876,
4842.000,1.35827,
4841.000,1.36691,
4840.000,1.37493,
4839.000,1.38334,
4838.000,1.39318,
4837.000,1.40469,
4836.000,1.41715,
4835.000,1.42945,
4834.000,1.44088,
4833.000,1.45133,
4832.000,1.46112,
4831.000,1.47069,
4830.000,1.48028,
4829.000,1.48983,
4828.000,1.49908,
4827.000,1.50808,
4826.000,1.51737,
4825.000,1.52769,
4824.000,1.53931,
4823.000,1.55191,
4822.000,1.565,
4821.000,1.57837,
4820.000,1.59207,
4819.000,1.60596,
4818.000,1.61944,
4817.000,1.63179,
4816.000,1.64291,
4815.000,1.65379,
4814.000,1.66591,
4813.000,1.67999,
4812.000,1.69547,
4811.000,1.71113,
4810.000,1.72627,
4809.000,1.74098,
4808.000,1.75559,
4807.000,1.77013,
4806.000,1.7844,
4805.000,1.7983,
4804.000,1.81188,
4803.000,1.82544,
4802.000,1.83926,
4801.000,1.85331,
4800.000,1.86724,
4799.000,1.881,
4798.000,1.89532,
4797.000,1.91119,
4796.000,1.92877,
4795.000,1.94712,
4794.000,1.96514,
4793.000,1.98251,
4792.000,1.99955,
4791.000,2.01646,
4790.000,2.03304,
4789.000,2.0491,
4788.000,2.0649,
4787.000,2.08117,
4786.000,2.09865,
4785.000,2.11753,
4784.000,2.13704,
4783.000,2.15579,
4782.000,2.17281,
4781.000,2.18838,
4780.000,2.20372,
4779.000,2.21999,
4778.000,2.23754,
4777.000,2.25606,
4776.000,2.27516,
4775.000,2.29478,
4774.000,2.31516,
4773.000,2.33631,
4772.000,2.35759,
4771.000,2.3781,
4770.000,2.39749,
4769.000,2.4164,
4768.000,2.43582,
4767.000,2.45632,
4766.000,2.47766,
4765.000,2.49919,
4764.000,2.52041,
4763.000,2.54138,
4762.000,2.56268,
4761.000,2.58475,
4760.000,2.6071,
4759.000,2.6286,
4758.000,2.64878,
4757.000,2.66858,
4756.000,2.68968,
4755.000,2.71295,
4754.000,2.73791,
4753.000,2.76332,
4752.000,2.78808,
4751.000,2.81166,
4750.000,2.8341,
4749.000,2.85579,
4748.000,2.87723,
4747.000,2.89898,
4746.000,2.92181,
4745.000,2.9466,
4744.000,2.97361,
4743.000,3.00195,
4742.000,3.03013,
4741.000,3.05705,
4740.000,3.08261,
4739.000,3.10752,
4738.000,3.13295,
4737.000,3.15997,
4736.000,3.18896,
4735.000,3.21923,
4734.000,3.24943,
4733.000,3.27859,
4732.000,3.30683,
4731.000,3.33517,
4730.000,3.36478,
4729.000,3.39612,
4728.000,3.42859,
4727.000,3.46109,
4726.000,3.49298,
4725.000,3.52445,
4724.000,3.55601,
4723.000,3.58786,
4722.000,3.61998,
4721.000,3.65243,
4720.000,3.68533,
4719.000,3.71866,
4718.000,3.7525,
4717.000,3.78715,
4716.000,3.82283,
4715.000,3.85937,
4714.000,3.89634,
4713.000,3.93352,
4712.000,3.97085,
4711.000,4.00823,
4710.000,4.04558,
4709.000,4.08302,
4708.000,4.12071,
4707.000,4.15872,
4706.000,4.19727,
4705.000,4.23685,
4704.000,4.27775,
4703.000,4.3195,
4702.000,4.36141,
4701.000,4.4033,
4700.000,4.44549,
4699.000,4.48802,
4698.000,4.53047,
4697.000,4.57245,
4696.000,4.614,
4695.000,4.65539,
4694.000,4.69696,
4693.000,4.73885,
4692.000,4.78067,
4691.000,4.82148,
4690.000,4.86062,
4689.000,4.89866,
4688.000,4.93717,
4687.000,4.9776,
4686.000,5.0205,
4685.000,5.06553,
4684.000,5.11181,
4683.000,5.15823,
4682.000,5.20391,
4681.000,5.2484,
4680.000,5.29165,
4679.000,5.33394,
4678.000,5.37612,
4677.000,5.41934,
4676.000,5.46402,
4675.000,5.50938,
4674.000,5.55437,
4673.000,5.59887,
4672.000,5.64363,
4671.000,5.68925,
4670.000,5.73573,
4669.000,5.78276,
4668.000,5.82995,
4667.000,5.87688,
4666.000,5.92335,
4665.000,5.96948,
4664.000,6.01523,
4663.000,6.06028,
4662.000,6.10468,
4661.000,6.14943,
4660.000,6.19561,
4659.000,6.24314,
4658.000,6.29079,
4657.000,6.33724,
4656.000,6.38162,
4655.000,6.42342,
4654.000,6.46271,
4653.000,6.50037,
4652.000,6.53735,
4651.000,6.57372,
4650.000,6.60879,
4649.000,6.64215,
4648.000,6.67399,
4647.000,6.70451,
4646.000,6.73352,
4645.000,6.76055,
4644.000,6.78508,
4643.000,6.80678,
4642.000,6.82587,
4641.000,6.84314,
4640.000,6.85909,
4639.000,6.87314,
4638.000,6.88426,
4637.000,6.89205,
4636.000,6.89702,
4635.000,6.89995,
4634.000,6.90129,
4633.000,6.90097,
4632.000,6.89819,
4631.000,6.89192,
4630.000,6.88188,
4629.000,6.86904,
4628.000,6.85486,
4627.000,6.84013,
4626.000,6.82477,
4625.000,6.80828,
4624.000,6.78986,
4623.000,6.76861,
4622.000,6.7443,
4621.000,6.71764,
4620.000,6.68949,
4619.000,6.66014,
4618.000,6.62963,
4617.000,6.59833,
4616.000,6.56645,
4615.000,6.53362,
4614.000,6.49929,
4613.000,6.46355,
4612.000,6.42679,
4611.000,6.38906,
4610.000,6.35032,
4609.000,6.31104,
4608.000,6.27197,
4607.000,6.23346,
4606.000,6.19526,
4605.000,6.15673,
4604.000,6.11689,
4603.000,6.0748,
4602.000,6.03055,
4601.000,5.98559,
4600.000,5.94155,
4599.000,5.89885,
4598.000,5.85699,
4597.000,5.81558,
4596.000,5.77465,
4595.000,5.73405,
4594.000,5.69322,
4593.000,5.65151,
4592.000,5.60846,
4591.000,5.56413,
4590.000,5.51933,
4589.000,5.47527,
4588.000,5.43256,
4587.000,5.39068,
4586.000,5.34878,
4585.000,5.30666,
4584.000,5.26451,
4583.000,5.22231,
4582.000,5.17993,
4581.000,5.13752,
4580.000,5.09538,
4579.000,5.05354,
4578.000,5.01186,
4577.000,4.97032,
4576.000,4.92888,
4575.000,4.88739,
4574.000,4.84584,
4573.000,4.80458,
4572.000,4.76399,
4571.000,4.72408,
4570.000,4.68468,
4569.000,4.64576,
4568.000,4.60724,
4567.000,4.56881,
4566.000,4.53036,
4565.000,4.49215,
4564.000,4.45434,
4563.000,4.41655,
4562.000,4.37837,
4561.000,4.33987,
4560.000,4.30146,
4559.000,4.26343,
4558.000,4.22584,
4557.000,4.18867,
4556.000,4.15172,
4555.000,4.11485,
4554.000,4.07837,
4553.000,4.04296,
4552.000,4.00888,
4551.000,3.97549,
4550.000,3.94186,
4549.000,3.90743,
4548.000,3.87192,
4547.000,3.83536,
4546.000,3.79838,
4545.000,3.76222,
4544.000,3.72774,
4543.000,3.69474,
4542.000,3.66253,
4541.000,3.6307,
4540.000,3.59907,
4539.000,3.56725,
4538.000,3.53492,
4537.000,3.5022,
4536.000,3.46935,
4535.000,3.43655,
4534.000,3.40418,
4533.000,3.37291,
4532.000,3.34289,
4531.000,3.31313,
4530.000,3.28235,
4529.000,3.2502,
4528.000,3.21745,
4527.000,3.18511,
4526.000,3.15384,
4525.000,3.1239,
4524.000,3.09511,
4523.000,3.06675,
4522.000,3.03803,
4521.000,3.00872,
4520.000,2.97903,
4519.000,2.94925,
4518.000,2.91961,
4517.000,2.89034,
4516.000,2.86137,
4515.000,2.83225,
4514.000,2.80264,
4513.000,2.77295,
4512.000,2.74393,
4511.000,2.71582,
4510.000,2.68829,
4509.000,2.66103,
4508.000,2.63412,
4507.000,2.60758,
4506.000,2.58113,
4505.000,2.5544,
4504.000,2.52725,
4503.000,2.49982,
4502.000,2.47239,
4501.000,2.44521,
4500.000,2.41819,
4499.000,2.39108,
4498.000,2.36397,
4497.000,2.33755,
4496.000,2.31255,
4495.000,2.28901,
4494.000,2.26617,
4493.000,2.24317,
4492.000,2.2196,
4491.000,2.19549,
4490.000,2.17111,
4489.000,2.14674,
4488.000,2.12262,
4487.000,2.09894,
4486.000,2.07595,
4485.000,2.05386,
4484.000,2.03253,
4483.000,2.01137,
4482.000,1.98985,
4481.000,1.96799,
4480.000,1.94633,
4479.000,1.92529,
4478.000,1.90476,
4477.000,1.88424,
4476.000,1.86341,
4475.000,1.8423,
4474.000,1.82125,
4473.000,1.80057,
4472.000,1.78044,
4471.000,1.76105,
4470.000,1.74278,
4469.000,1.7258,
4468.000,1.70957,
4467.000,1.69286,
4466.000,1.67467,
4465.000,1.65509,
4464.000,1.63523,
4463.000,1.61634,
4462.000,1.59909,
4461.000,1.58317,
4460.000,1.56766,
4459.000,1.55171,
4458.000,1.53527,
4457.000,1.51904,
4456.000,1.50377,
4455.000,1.48957,
4454.000,1.476,
4453.000,1.46253,
4452.000,1.44875,
4451.000,1.43428,
4450.000,1.41874,
4449.000,1.40219,
4448.000,1.38516,
4447.000,1.36849,
4446.000,1.35295,
4445.000,1.33884,
4444.000,1.32588,
4443.000,1.3135,
4442.000,1.30129,
4441.000,1.28935,
4440.000,1.27786,
4439.000,1.26654,
4438.000,1.25468,
4437.000,1.24173,
4436.000,1.22785,
4435.000,1.21388,
4434.000,1.20065,
4433.000,1.18833,
4432.000,1.17624,
4431.000,1.16339,
4430.000,1.14957,
4429.000,1.13571,
4428.000,1.12319,
4427.000,1.1128,
4426.000,1.10416,
4425.000,1.09617,
4424.000,1.08781,
4423.000,1.07844,
4422.000,1.06782,
4421.000,1.05607,
4420.000,1.04366,
4419.000,1.03135,
4418.000,1.01973,
4417.000,1.00885,
4416.000,0.998395,
4415.000,0.988258,
4414.000,0.978755,
4413.000,0.970197,
4412.000,0.962359,
4411.000,0.954555,
4410.000,0.946174,
4409.000,0.937057,
4408.000,0.927507,
4407.000,0.918085,
4406.000,0.909335,
4405.000,0.901431,
4404.000,0.893955,
4403.000,0.886137,
4402.000,0.877505,
4401.000,0.868305,
4400.000,0.859312,
4399.000,0.851251,
4398.000,0.844312,
4397.000,0.8381,
4396.000,0.831992,
4395.000,0.825647,
4394.000,0.819219,
4393.000,0.813039,
4392.000,0.80719,
4391.000,0.80151,
4390.000,0.795926,
4389.000,0.790558,
4388.000,0.785488,
4387.000,0.780539,
4386.000,0.775284,
4385.000,0.769216,
4384.000,0.761992,
4383.000,0.753809,
4382.000,0.745639,
4381.000,0.738781,
4380.000,0.733906,
4379.000,0.73053,
4378.000,0.727474,
4377.000,0.723816,
4376.000,0.719489,
4375.000,0.715177,
4374.000,0.711662,
4373.000,0.709081,
4372.000,0.706682,
4371.000,0.70339,
4370.000,0.698677,
4369.000,0.692873,
4368.000,0.686743,
4367.000,0.68097,
4366.000,0.676082,
4365.000,0.672525,
4364.000,0.670493,
4363.000,0.669658,
4362.000,0.669208,
4361.000,0.668179,
4360.000,0.665883,
4359.000,0.662308,
4358.000,0.658268,
4357.000,0.654945,
4356.000,0.652986,
4355.000,0.65196,
4354.000,0.650773,
4353.000,0.648564,
4352.000,0.645239,
4351.000,0.641394,
4350.000,0.637922,
4349.000,0.635594,
4348.000,0.634712,
4347.000,0.635008,
4346.000,0.63587,
4345.000,0.636662,
4344.000,0.636937,
4343.000,0.636539,
4342.000,0.63563,
4341.000,0.634508,
4340.000,0.633275,
4339.000,0.631792,
4338.000,0.630107,
4337.000,0.62875,
4336.000,0.628387,
4335.000,0.629128,
4334.000,0.630318,
4333.000,0.631014,
4332.000,0.630579,
4331.000,0.628957,
4330.000,0.626596,
4329.000,0.624215,
4328.000,0.622508,
4327.000,0.621934,
4326.000,0.62263,
4325.000,0.624368,
4324.000,0.626552,
4323.000,0.628412,
4322.000,0.629463,
4321.000,0.629855,
4320.000,0.630175,
4319.000,0.630943,
4318.000,0.632269,
4317.000,0.63382,
4316.000,0.634992,
4315.000,0.635271,
4314.000,0.634711,
4313.000,0.634125,
4312.000,0.634529,
4311.000,0.63621,
4310.000,0.638462,
4309.000,0.640311,
4308.000,0.641451,
4307.000,0.642507,
4306.000,0.644397,
4305.000,0.647473,
4304.000,0.651182,
4303.000,0.654511,
4302.000,0.656764,
4301.000,0.657976,
4300.000,0.658729,
4299.000,0.659704,
4298.000,0.661397,
4297.000,0.663992,
4296.000,0.667214,
4295.000,0.670381,
4294.000,0.672917,
4293.000,0.674936,
4292.000,0.677209,
4291.000,0.680475,
4290.000,0.684756,
4289.000,0.689359,
4288.000,0.693434,
4287.000,0.696524,
4286.000,0.698779,
4285.000,0.700768,
4284.000,0.70312,
4283.000,0.706196,
4282.000,0.709998,
4281.000,0.714314,
4280.000,0.71888,
4279.000,0.723441,
4278.000,0.727795,
4277.000,0.731847,
4276.000,0.735675,
4275.000,0.739572,
4274.000,0.744005,
4273.000,0.74936,
4272.000,0.755575,
4271.000,0.762013,
4270.000,0.767874,
4269.000,0.77281,
4268.000,0.777083,
4267.000,0.781232,
4266.000,0.785702,
4265.000,0.790777,
4264.000,0.796617,
4263.000,0.803124,
4262.000,0.809819,
4261.000,0.816062,
4260.000,0.821519,
4259.000,0.826492,
4258.000,0.831712,
4257.000,0.837753,
4256.000,0.844615,
4255.000,0.851903,
4254.000,0.859402,
4253.000,0.867297,
4252.000,0.875739,
4251.000,0.884337,
4250.000,0.892367,
4249.000,0.899467,
4248.000,0.905938,
4247.000,0.912299,
4246.000,0.91883,
4245.000,0.925726,
4244.000,0.933412,
4243.000,0.942317,
4242.000,0.952286,
4241.000,0.962492,
4240.000,0.97218,
4239.000,0.981349,
4238.000,0.990543,
4237.000,1.00002,
4236.000,1.00941,
4235.000,1.01827,
4234.000,1.02683,
4233.000,1.03583,
4232.000,1.04575,
4231.000,1.05641,
4230.000,1.06733,
4229.000,1.07826,
4228.000,1.08913,
4227.000,1.09967,
4226.000,1.10957,
4225.000,1.11902,
4224.000,1.12892,
4223.000,1.14002,
4222.000,1.15218,
4221.000,1.16433,
4220.000,1.17548,
4219.000,1.18558,
4218.000,1.19557,
4217.000,1.20647,
4216.000,1.21855,
4215.000,1.23116,
4214.000,1.24337,
4213.000,1.25478,
4212.000,1.26575,
4211.000,1.27694,
4210.000,1.28884,
4209.000,1.30158,
4208.000,1.31508,
4207.000,1.32912,
4206.000,1.34342,
4205.000,1.35777,
4204.000,1.37209,
4203.000,1.38641,
4202.000,1.40064,
4201.000,1.41462,
4200.000,1.42824,
4199.000,1.44176,
4198.000,1.45564,
4197.000,1.47009,
4196.000,1.48478,
4195.000,1.49912,
4194.000,1.51292,
4193.000,1.52663,
4192.000,1.54086,
4191.000,1.5558,
4190.000,1.57115,
4189.000,1.58656,
4188.000,1.60191,
4187.000,1.61726,
4186.000,1.63261,
4185.000,1.64788,
4184.000,1.66304,
4183.000,1.67831,
4182.000,1.69413,
4181.000,1.71085,
4180.000,1.72835,
4179.000,1.74607,
4178.000,1.76359,
4177.000,1.78104,
4176.000,1.79895,
4175.000,1.81752,
4174.000,1.83628,
4173.000,1.85455,
4172.000,1.87192,
4171.000,1.88853,
4170.000,1.9048,
4169.000,1.92129,
4168.000,1.93853,
4167.000,1.95694,
4166.000,1.97656,
4165.000,1.99699,
4164.000,2.01772,
4163.000,2.03853,
4162.000,2.05951,
4161.000,2.08068,
4160.000,2.10171,
4159.000,2.12221,
4158.000,2.14232,
4157.000,2.1627,
4156.000,2.18393,
4155.000,2.2059,
4154.000,2.22796,
4153.000,2.24952,
4152.000,2.27066,
4151.000,2.29203,
4150.000,2.31446,
4149.000,2.33833,
4148.000,2.36325,
4147.000,2.38839,
4146.000,2.4132,
4145.000,2.43785,
4144.000,2.46296,
4143.000,2.48896,
4142.000,2.51583,
4141.000,2.54319,
4140.000,2.57058,
4139.000,2.59757,
4138.000,2.624,
4137.000,2.65029,
4136.000,2.67723,
4135.000,2.70548,
4134.000,2.73504,
4133.000,2.76518,
4132.000,2.79507,
4131.000,2.8244,
4130.000,2.8536,
4129.000,2.88342,
4128.000,2.91415,
4127.000,2.94555,
4126.000,2.97721,
4125.000,3.00905,
4124.000,3.04127,
4123.000,3.07398,
4122.000,3.10715,
4121.000,3.14078,
4120.000,3.17499,
4119.000,3.20973,
4118.000,3.24467,
4117.000,3.27946,
4116.000,3.31412,
4115.000,3.34914,
4114.000,3.38506,
4113.000,3.42208,
4112.000,3.45989,
4111.000,3.49795,
4110.000,3.53577,
4109.000,3.57303,
4108.000,3.60965,
4107.000,3.64594,
4106.000,3.68262,
4105.000,3.72051,
4104.000,3.75994,
4103.000,3.80051,
4102.000,3.84148,
4101.000,3.88221,
4100.000,3.92246,
4099.000,3.96234,
4098.000,4.00228,
4097.000,4.04277,
4096.000,4.0839,
4095.000,4.12516,
4094.000,4.16575,
4093.000,4.20522,
4092.000,4.24379,
4091.000,4.28221,
4090.000,4.32116,
4089.000,4.36087,
4088.000,4.40091,
4087.000,4.44056,
4086.000,4.47922,
4085.000,4.51665,
4084.000,4.55292,
4083.000,4.58829,
4082.000,4.62314,
4081.000,4.65787,
4080.000,4.69259,
4079.000,4.72697,
4078.000,4.7605,
4077.000,4.79289,
4076.000,4.82408,
4075.000,4.85414,
4074.000,4.88316,
4073.000,4.91123,
4072.000,4.93836,
4071.000,4.96425,
4070.000,4.98823,
4069.000,5.00967,
4068.000,5.02856,
4067.000,5.04557,
4066.000,5.06146,
4065.000,5.07622,
4064.000,5.08893,
4063.000,5.09855,
4062.000,5.10494,
4061.000,5.10876,
4060.000,5.11061,
4059.000,5.1103,
4058.000,5.10719,
4057.000,5.10101,
4056.000,5.09219,
4055.000,5.08152,
4054.000,5.06968,
4053.000,5.05685,
4052.000,5.04282,
4051.000,5.02724,
4050.000,5.00991,
4049.000,4.99077,
4048.000,4.96978,
4047.000,4.94674,
4046.000,4.92154,
4045.000,4.8945,
4044.000,4.86653,
4043.000,4.83871,
4042.000,4.81161,
4041.000,4.78477,
4040.000,4.75698,
4039.000,4.72723,
4038.000,4.69552,
4037.000,4.66278,
4036.000,4.63001,
4035.000,4.59757,
4034.000,4.56526,
4033.000,4.53277,
4032.000,4.49981,
4031.000,4.46612,
4030.000,4.43134,
4029.000,4.39528,
4028.000,4.35816,
4027.000,4.32069,
4026.000,4.28381,
4025.000,4.24806,
4024.000,4.21314,
4023.000,4.17809,
4022.000,4.14201,
4021.000,4.10458,
4020.000,4.06604,
4019.000,4.02695,
4018.000,3.98813,
4017.000,3.95045,
4016.000,3.91432,
4015.000,3.87923,
4014.000,3.84418,
4013.000,3.80872,
4012.000,3.77322,
4011.000,3.73829,
4010.000,3.70393,
4009.000,3.66974,
4008.000,3.63565,
4007.000,3.60212,
4006.000,3.56956,
4005.000,3.53782,
4004.000,3.50628,
4003.000,3.47436,
4002.000,3.44177,
4001.000,3.40853,
4000.000,3.37505,
3999.000,3.34203,
3998.000,3.31004,
3997.000,3.27896,
3996.000,3.24804,
3995.000,3.21655,
3994.000,3.18443,
3993.000,3.15216,
3992.000,3.12009,
3991.000,3.08808,
3990.000,3.05592,
3989.000,3.0239,
3988.000,2.99273,
3987.000,2.96285,
3986.000,2.93384,
3985.000,2.90466,
3984.000,2.87454,
3983.000,2.84364,
3982.000,2.81278,
3981.000,2.78266,
3980.000,2.75322,
3979.000,2.72392,
3978.000,2.69435,
3977.000,2.66466,
3976.000,2.63537,
3975.000,2.60682,
3974.000,2.57894,
3973.000,2.55153,
3972.000,2.52462,
3971.000,2.49845,
3970.000,2.473,
3969.000,2.4477,
3968.000,2.42183,
3967.000,2.39509,
3966.000,2.36775,
3965.000,2.34023,
3964.000,2.31274,
3963.000,2.2854,
3962.000,2.25844,
3961.000,2.23214,
3960.000,2.20646,
3959.000,2.18116,
3958.000,2.15613,
3957.000,2.13136,
3956.000,2.10664,
3955.000,2.08148,
3954.000,2.0557,
3953.000,2.02991,
3952.000,2.0052,
3951.000,1.98219,
3950.000,1.96049,
3949.000,1.93905,
3948.000,1.91699,
3947.000,1.8941,
3946.000,1.8709,
3945.000,1.84818,
3944.000,1.82647,
3943.000,1.80576,
3942.000,1.78567,
3941.000,1.76592,
3940.000,1.74647,
3939.000,1.7272,
3938.000,1.70751,
3937.000,1.68674,
3936.000,1.66497,
3935.000,1.64324,
3934.000,1.62271,
3933.000,1.60393,
3932.000,1.58654,
3931.000,1.56967,
3930.000,1.55252,
3929.000,1.53485,
3928.000,1.51687,
3927.000,1.49879,
3926.000,1.48045,
3925.000,1.46158,
3924.000,1.44237,
3923.000,1.42353,
3922.000,1.40566,
3921.000,1.38883,
3920.000,1.37246,
3919.000,1.35589,
3918.000,1.33899,
3917.000,1.32236,
3916.000,1.3067,
3915.000,1.29209,
3914.000,1.27769,
3913.000,1.26242,
3912.000,1.24587,
3911.000,1.22871,
3910.000,1.21218,
3909.000,1.19707,
3908.000,1.18331,
3907.000,1.17014,
3906.000,1.15676,
3905.000,1.14286,
3904.000,1.12887,
3903.000,1.11579,
3902.000,1.10435,
3901.000,1.09413,
3900.000,1.08359,
3899.000,1.07132,
3898.000,1.05745,
3897.000,1.0433,
3896.000,1.02989,
3895.000,1.01701,
3894.000,1.00374,
3893.000,0.989575,
3892.000,0.974946,
3891.000,0.960857,
3890.000,0.948356,
3889.000,0.937854,
3888.000,0.928564,
3887.000,0.918812,
3886.000,0.907428,
3885.000,0.894973,
3884.000,0.883247,
3883.000,0.873462,
3882.000,0.864862,
3881.000,0.855342,
3880.000,0.843653,
3879.000,0.830797,
3878.000,0.818938,
3877.000,0.809123,
3876.000,0.800396,
3875.000,0.791149,
3874.000,0.781097,
3873.000,0.77141,
3872.000,0.762951,
3871.000,0.755025,
3870.000,0.746178,
3869.000,0.736094,
3868.000,0.726082,
3867.000,0.717401,
3866.000,0.709688,
3865.000,0.701531,
3864.000,0.69234,
3863.000,0.682895,
3862.000,0.674151,
3861.000,0.666208,
3860.000,0.65842,
3859.000,0.65023,
3858.000,0.641803,
3857.000,0.633832,
3856.000,0.62692,
3855.000,0.621061,
3854.000,0.61548,
3853.000,0.609415,
3852.000,0.603345,
3851.000,0.598479,
3850.000,0.594242,
3849.000,0.588122,
3848.000,0.578955,
3847.000,0.56817,
3846.000,0.557641,
3845.000,0.548294,
3844.000,0.540532,
3843.000,0.534711,
3842.000,0.530926,
3841.000,0.528447,
3840.000,0.525699,
3839.000,0.521268,
3838.000,0.515096,
3837.000,0.508577,
3836.000,0.503251,
3835.000,0.499372,
3834.000,0.495959,
3833.000,0.492118,
3832.000,0.487953,
3831.000,0.484029,
3830.000,0.480303,
3829.000,0.476028,
3828.000,0.470654,
3827.000,0.46459,
3826.000,0.459051,
3825.000,0.455073,
3824.000,0.452554,
3823.000,0.450365,
3822.000,0.447419,
3821.000,0.443732,
3820.000,0.440392,
3819.000,0.438211,
3818.000,0.436537,
3817.000,0.433805,
3816.000,0.429442,
3815.000,0.424638,
3814.000,0.420931,
3813.000,0.418653,
3812.000,0.416833,
3811.000,0.414288,
3810.000,0.410911,
3809.000,0.40769,
3808.000,0.405565,
3807.000,0.404462,
3806.000,0.403385,
3805.000,0.401483,
3804.000,0.398767,
3803.000,0.395819,
3802.000,0.393274,
3801.000,0.391417,
3800.000,0.389984,
3799.000,0.388533,
3798.000,0.386781,
3797.000,0.384619,
3796.000,0.38236,
3795.000,0.380551,
3794.000,0.379199,
3793.000,0.377705,
3792.000,0.375575,
3791.000,0.372934,
3790.000,0.370299,
3789.000,0.367932,
3788.000,0.365691,
3787.000,0.363457,
3786.000,0.361448,
3785.000,0.359977,
3784.000,0.359032,
3783.000,0.35831,
3782.000,0.357561,
3781.000,0.356783,
3780.000,0.356119,
3779.000,0.355658,
3778.000,0.355358,
3777.000,0.355092,
3776.000,0.35471,
3775.000,0.354159,
3774.000,0.353589,
3773.000,0.35323,
3772.000,0.35308,
3771.000,0.352808,
3770.000,0.352094,
3769.000,0.351032,
3768.000,0.350044,
3767.000,0.349318,
3766.000,0.348524,
3765.000,0.347304,
3764.000,0.345925,
3763.000,0.34512,
3762.000,0.345281,
3761.000,0.34599,
3760.000,0.346421,
3759.000,0.346235,
3758.000,0.345972,
3757.000,0.346433,
3756.000,0.347779,
3755.000,0.349338,
3754.000,0.350328,
3753.000,0.350605,
3752.000,0.350653,
3751.000,0.35096,
3750.000,0.351472,
3749.000,0.351794,
3748.000,0.351864,
3747.000,0.352004,
3746.000,0.352456,
3745.000,0.353099,
3744.000,0.353384,
3743.000,0.352962,
3742.000,0.352419,
3741.000,0.352309,
3740.000,0.352051,
3739.000,0.35114,
3738.000,0.350192,
3737.000,0.349948,
3736.000,0.350365,
3735.000,0.350888,
3734.000,0.351166,
3733.000,0.351227,
3732.000,0.351127,
3731.000,0.350901,
3730.000,0.35077,
3729.000,0.351017,
3728.000,0.351633,
3727.000,0.352271,
3726.000,0.352753,
3725.000,0.3535,
3724.000,0.35517,
3723.000,0.357785,
3722.000,0.360469,
3721.000,0.362278,
3720.000,0.36311,
3719.000,0.363679,
3718.000,0.364759,
3717.000,0.366618,
3716.000,0.36908,
3715.000,0.371929,
3714.000,0.375138,
3713.000,0.378743,
3712.000,0.382428,
3711.000,0.385615,
3710.000,0.388009,
3709.000,0.389732,
3708.000,0.390937,
3707.000,0.391509,
3706.000,0.391549,
3705.000,0.391598,
3704.000,0.392358,
3703.000,0.394084,
3702.000,0.396399,
3701.000,0.398747,
3700.000,0.400857,
3699.000,0.402825,
3698.000,0.404843,
3697.000,0.407105,
3696.000,0.409738,
3695.000,0.412759,
3694.000,0.416023,
3693.000,0.419537,
3692.000,0.423595,
3691.000,0.428637,
3690.000,0.434725,
3689.000,0.441059,
3688.000,0.446348,
3687.000,0.449848,
3686.000,0.451997,
3685.000,0.453525,
3684.000,0.454825,
3683.000,0.456242,
3682.000,0.458337,
3681.000,0.461597,
3680.000,0.466207,
3679.000,0.472156,
3678.000,0.479363,
3677.000,0.487516,
3676.000,0.495573,
3675.000,0.502193,
3674.000,0.507276,
3673.000,0.512326,
3672.000,0.518225,
3671.000,0.523812,
3670.000,0.527394,
3669.000,0.528771,
3668.000,0.529412,
3667.000,0.531057,
3666.000,0.53424,
3665.000,0.538329,
3664.000,0.542726,
3663.000,0.547331,
3662.000,0.552188,
3661.000,0.557359,
3660.000,0.563001,
3659.000,0.569273,
3658.000,0.576195,
3657.000,0.58347,
3656.000,0.590531,
3655.000,0.597132,
3654.000,0.603967,
3653.000,0.61218,
3652.000,0.622171,
3651.000,0.633073,
3650.000,0.643092,
3649.000,0.650533,
3648.000,0.654985,
3647.000,0.657439,
3646.000,0.659451,
3645.000,0.66232,
3644.000,0.666399,
3643.000,0.670948,
3642.000,0.67498,
3641.000,0.678459,
3640.000,0.682487,
3639.000,0.687995,
3638.000,0.694768,
3637.000,0.702022,
3636.000,0.709526,
3635.000,0.717571,
3634.000,0.726183,
3633.000,0.735196,
3632.000,0.744972,
3631.000,0.756033,
3630.000,0.767448,
3629.000,0.776375,
3628.000,0.780792,
3627.000,0.782683,
3626.000,0.786246,
3625.000,0.79316,
3624.000,0.801869,
3623.000,0.810793,
3622.000,0.820043,
3621.000,0.830199,
3620.000,0.840907,
3619.000,0.851006,
3618.000,0.859923,
3617.000,0.868514,
3616.000,0.878078,
3615.000,0.888786,
3614.000,0.899502,
3613.000,0.909092,
3612.000,0.917527,
3611.000,0.92588,
3610.000,0.935075,
3609.000,0.944671,
3608.000,0.953313,
3607.000,0.960476,
3606.000,0.967486,
3605.000,0.976132,
3604.000,0.986749,
3603.000,0.997943,
3602.000,1.00814,
3601.000,1.017,
3600.000,1.02539,
3599.000,1.03467,
3598.000,1.0457,
3597.000,1.05845,
3596.000,1.07188,
3595.000,1.0846,
3594.000,1.09577,
3593.000,1.10583,
3592.000,1.11608,
3591.000,1.12795,
3590.000,1.14214,
3589.000,1.1579,
3588.000,1.17316,
3587.000,1.18571,
3586.000,1.19547,
3585.000,1.20479,
3584.000,1.21642,
3583.000,1.23086,
3582.000,1.24635,
3581.000,1.26106,
3580.000,1.27467,
3579.000,1.28795,
3578.000,1.30164,
3577.000,1.31591,
3576.000,1.33048,
3575.000,1.34519,
3574.000,1.36021,
3573.000,1.37585,
3572.000,1.39202,
3571.000,1.40829,
3570.000,1.42438,
3569.000,1.44054,
3568.000,1.45716,
3567.000,1.47413,
3566.000,1.49096,
3565.000,1.50738,
3564.000,1.52365,
3563.000,1.54015,
3562.000,1.5568,
3561.000,1.5734,
3560.000,1.59005,
3559.000,1.60686,
3558.000,1.62373,
3557.000,1.64065,
3556.000,1.65795,
3555.000,1.67589,
3554.000,1.69424,
3553.000,1.71242,
3552.000,1.73015,
3551.000,1.74795,
3550.000,1.76683,
3549.000,1.78725,
3548.000,1.80841,
3547.000,1.82881,
3546.000,1.84753,
3545.000,1.865,
3544.000,1.8824,
3543.000,1.90079,
3542.000,1.92054,
3541.000,1.94139,
3540.000,1.96271,
3539.000,1.98395,
3538.000,2.00494,
3537.000,2.02571,
3536.000,2.04622,
3535.000,2.06649,
3534.000,2.08697,
3533.000,2.10832,
3532.000,2.13068,
3531.000,2.15339,
3530.000,2.17575,
3529.000,2.19777,
3528.000,2.21987,
3527.000,2.2423,
3526.000,2.26497,
3525.000,2.2876,
3524.000,2.30971,
3523.000,2.33084,
3522.000,2.35119,
3521.000,2.3717,
3520.000,2.39319,
3519.000,2.4154,
3518.000,2.43746,
3517.000,2.45894,
3516.000,2.48006,
3515.000,2.50093,
3514.000,2.52137,
3513.000,2.5414,
3512.000,2.5615,
3511.000,2.58209,
3510.000,2.6031,
3509.000,2.62424,
3508.000,2.64535,
3507.000,2.66634,
3506.000,2.68711,
3505.000,2.70751,
3504.000,2.72738,
3503.000,2.74635,
3502.000,2.76387,
3501.000,2.77965,
3500.000,2.79415,
3499.000,2.80814,
3498.000,2.822,
3497.000,2.83542,
3496.000,2.84801,
3495.000,2.85973,
3494.000,2.87083,
3493.000,2.88139,
3492.000,2.89112,
3491.000,2.89966,
3490.000,2.90687,
3489.000,2.91283,
3488.000,2.91756,
3487.000,2.92087,
3486.000,2.92259,
3485.000,2.92269,
3484.000,2.92143,
3483.000,2.91926,
3482.000,2.91664,
3481.000,2.91364,
3480.000,2.90972,
3479.000,2.90398,
3478.000,2.89595,
3477.000,2.8859,
3476.000,2.87463,
3475.000,2.86283,
3474.000,2.85077,
3473.000,2.83821,
3472.000,2.82478,
3471.000,2.81031,
3470.000,2.79514,
3469.000,2.77988,
3468.000,2.76488,
3467.000,2.74964,
3466.000,2.73313,
3465.000,2.71456,
3464.000,2.69403,
3463.000,2.67244,
3462.000,2.65083,
3461.000,2.62972,
3460.000,2.609,
3459.000,2.5882,
3458.000,2.56687,
3457.000,2.5447,
3456.000,2.52168,
3455.000,2.49805,
3454.000,2.47427,
3453.000,2.45077,
3452.000,2.42752,
3451.000,2.40412,
3450.000,2.3801,
3449.000,2.35533,
3448.000,2.33023,
3447.000,2.3055,
3446.000,2.28167,
3445.000,2.25864,
3444.000,2.23569,
3443.000,2.2119,
3442.000,2.18691,
3441.000,2.16122,
3440.000,2.13565,
3439.000,2.11054,
3438.000,2.08557,
3437.000,2.06036,
3436.000,2.03502,
3435.000,2.00993,
3434.000,1.98514,
3433.000,1.96035,
3432.000,1.93528,
3431.000,1.90985,
3430.000,1.88399,
3429.000,1.85745,
3428.000,1.83018,
3427.000,1.80259,
3426.000,1.7754,
3425.000,1.74902,
3424.000,1.72336,
3423.000,1.69805,
3422.000,1.67283,
3421.000,1.64779,
3420.000,1.62316,
3419.000,1.59896,
3418.000,1.57493,
3417.000,1.55078,
3416.000,1.52675,
3415.000,1.50348,
3414.000,1.48144,
3413.000,1.46059,
3412.000,1.44064,
3411.000,1.42164,
3410.000,1.40386,
3409.000,1.38746,
3408.000,1.37225,
3407.000,1.35793,
3406.000,1.3443,
3405.000,1.33143,
3404.000,1.31971,
3403.000,1.30966,
3402.000,1.30148,
3401.000,1.29478,
3400.000,1.28882,
3399.000,1.28289,
3398.000,1.27647,
3397.000,1.2692,
3396.000,1.26106,
3395.000,1.25245,
3394.000,1.24376,
3393.000,1.23492,
3392.000,1.22561,
3391.000,1.21572,
3390.000,1.20541,
3389.000,1.19462,
3388.000,1.18315,
3387.000,1.17108,
3386.000,1.15887,
3385.000,1.14678,
3384.000,1.13458,
3383.000,1.12206,
3382.000,1.10944,
3381.000,1.09699,
3380.000,1.08462,
3379.000,1.07203,
3378.000,1.05909,
3377.000,1.04591,
3376.000,1.03259,
3375.000,1.01928,
3374.000,1.00629,
3373.000,0.993759,
3372.000,0.981443,
3371.000,0.969096,
3370.000,0.956922,
3369.000,0.945318,
3368.000,0.934146,
3367.000,0.922662,
3366.000,0.910336,
3365.000,0.897486,
3364.000,0.884885,
3363.000,0.872969,
3362.000,0.86163,
3361.000,0.850626,
3360.000,0.839835,
3359.000,0.829044,
3358.000,0.817822,
3357.000,0.805914,
3356.000,0.793712,
3355.000,0.782088,
3354.000,0.771615,
3353.000,0.762053,
3352.000,0.752702,
3351.000,0.743135,
3350.000,0.73347,
3349.000,0.724023,
3348.000,0.714918,
3347.000,0.706014,
3346.000,0.696995,
3345.000,0.687486,
3344.000,0.677353,
3343.000,0.667053,
3342.000,0.657477,
3341.000,0.649167,
3340.000,0.64172,
3339.000,0.634133,
3338.000,0.625712,
3337.000,0.616527,
3336.000,0.607123,
3335.000,0.598048,
3334.000,0.589689,
3333.000,0.582222,
3332.000,0.575494,
3331.000,0.569008,
3330.000,0.562209,
3329.000,0.554836,
3328.000,0.547046,
3327.000,0.539306,
3326.000,0.532162,
3325.000,0.525901,
3324.000,0.520237,
3323.000,0.514359,
3322.000,0.507497,
3321.000,0.499554,
3320.000,0.491204,
3319.000,0.48335,
3318.000,0.476413,
3317.000,0.470109,
3316.000,0.463839,
3315.000,0.457337,
3314.000,0.450895,
3313.000,0.44495,
3312.000,0.439477,
3311.000,0.433887,
3310.000,0.427563,
3309.000,0.420442,
3308.000,0.41309,
3307.000,0.406349,
3306.000,0.400882,
3305.000,0.396791,
3304.000,0.393482,
3303.000,0.389988,
3302.000,0.385684,
3301.000,0.380702,
3300.000,0.375593,
3299.000,0.37068,
3298.000,0.365902,
3297.000,0.361177,
3296.000,0.356608,
3295.000,0.352222,
3294.000,0.347734,
3293.000,0.342829,
3292.000,0.33764,
3291.000,0.332829,
3290.000,0.329082,
3289.000,0.326516,
3288.000,0.324524,
3287.000,0.322216,
3286.000,0.319076,
3285.000,0.315264,
3284.000,0.311326,
3283.000,0.307665,
3282.000,0.304371,
3281.000,0.301426,
3280.000,0.298841,
3279.000,0.296516,
3278.000,0.294163,
3277.000,0.291492,
3276.000,0.288413,
3275.000,0.284969,
3274.000,0.28122,
3273.000,0.277333,
3272.000,0.273717,
3271.000,0.270815,
3270.000,0.268707,
3269.000,0.267009,
3268.000,0.265234,
3267.000,0.263187,
3266.000,0.260998,
3265.000,0.258882,
3264.000,0.256977,
3263.000,0.255367,
3262.000,0.25408,
3261.000,0.252985,
3260.000,0.25176,
3259.000,0.250152,
3258.000,0.248263,
3257.000,0.246437,
3256.000,0.244769,
3255.000,0.242948,
3254.000,0.240753,
3253.000,0.238557,
3252.000,0.236973,
3251.000,0.235988,
3250.000,0.234855,
3249.000,0.233018,
3248.000,0.230865,
3247.000,0.229275,
3246.000,0.228591,
3245.000,0.22837,
3244.000,0.228015,
3243.000,0.227278,
3242.000,0.226147,
3241.000,0.224614,
3240.000,0.222777,
3239.000,0.220937,
3238.000,0.219405,
3237.000,0.218238,
3236.000,0.217259,
3235.000,0.21623,
3234.000,0.215002,
3233.000,0.213628,
3232.000,0.212389,
3231.000,0.211552,
3230.000,0.211049,
3229.000,0.210556,
3228.000,0.21001,
3227.000,0.209766,
3226.000,0.210041,
3225.000,0.210412,
3224.000,0.21017,
3223.000,0.209098,
3222.000,0.207606,
3221.000,0.206102,
3220.000,0.20458,
3219.000,0.202918,
3218.000,0.201286,
3217.000,0.200058,
3216.000,0.19945,
3215.000,0.199419,
3214.000,0.199807,
3213.000,0.200431,
3212.000,0.201033,
3211.000,0.201321,
3210.000,0.201122,
3209.000,0.200474,
3208.000,0.199589,
3207.000,0.198714,
3206.000,0.197981,
3205.000,0.197318,
3204.000,0.196557,
3203.000,0.195656,
3202.000,0.194759,
3201.000,0.194033,
3200.000,0.193533,
3199.000,0.193259,
3198.000,0.193207,
3197.000,0.193261,
3196.000,0.193192,
3195.000,0.192933,
3194.000,0.192748,
3193.000,0.192934,
3192.000,0.193447,
3191.000,0.194017,
3190.000,0.194585,
3189.000,0.195282,
3188.000,0.195975,
3187.000,0.196198,
3186.000,0.195727,
3185.000,0.194965,
3184.000,0.194509,
3183.000,0.194501,
3182.000,0.194637,
3181.000,0.19464,
3180.000,0.194427,
3179.000,0.193933,
3178.000,0.193134,
3177.000,0.192289,
3176.000,0.191815,
3175.000,0.191832,
3174.000,0.192046,
3173.000,0.192198,
3172.000,0.192366,
3171.000,0.192711,
3170.000,0.193146,
3169.000,0.193474,
3168.000,0.193671,
3167.000,0.19377,
3166.000,0.193598,
3165.000,0.192974,
3164.000,0.192189,
3163.000,0.191979,
3162.000,0.192847,
3161.000,0.194509,
3160.000,0.19614,
3159.000,0.197063,
3158.000,0.197202,
3157.000,0.197015,
3156.000,0.197131,
3155.000,0.197982,
3154.000,0.199549,
3153.000,0.201382,
3152.000,0.202901,
3151.000,0.203783,
3150.000,0.204102,
3149.000,0.20416,
3148.000,0.204222,
3147.000,0.204401,
3146.000,0.204714,
3145.000,0.205169,
3144.000,0.205757,
3143.000,0.206407,
3142.000,0.207003,
3141.000,0.207486,
3140.000,0.207925,
3139.000,0.208476,
3138.000,0.209278,
3137.000,0.210365,
3136.000,0.211659,
3135.000,0.213047,
3134.000,0.214477,
3133.000,0.215983,
3132.000,0.217602,
3131.000,0.219277,
3130.000,0.220881,
3129.000,0.222355,
3128.000,0.223792,
3127.000,0.225324,
3126.000,0.226918,
3125.000,0.228306,
3124.000,0.229201,
3123.000,0.229631,
3122.000,0.23006,
3121.000,0.231053,
3120.000,0.23274,
3119.000,0.23466,
3118.000,0.23624,
3117.000,0.237402,
3116.000,0.238598,
3115.000,0.240264,
3114.000,0.242411,
3113.000,0.244775,
3112.000,0.247188,
3111.000,0.249628,
3110.000,0.252039,
3109.000,0.254326,
3108.000,0.256533,
3107.000,0.25888,
3106.000,0.261556,
3105.000,0.264556,
3104.000,0.26773,
3103.000,0.270884,
3102.000,0.273826,
3101.000,0.276426,
3100.000,0.278701,
3099.000,0.280819,
3098.000,0.283006,
3097.000,0.285507,
3096.000,0.288553,
3095.000,0.292194,
3094.000,0.296166,
3093.000,0.300066,
3092.000,0.303731,
3091.000,0.30733,
3090.000,0.311081,
3089.000,0.31504,
3088.000,0.319183,
3087.000,0.323519,
3086.000,0.327989,
3085.000,0.332429,
3084.000,0.336799,
3083.000,0.341301,
3082.000,0.346058,
3081.000,0.350806,
3080.000,0.355147,
3079.000,0.359136,
3078.000,0.36338,
3077.000,0.368468,
3076.000,0.374432,
3075.000,0.380791,
3074.000,0.387045,
3073.000,0.393121,
3072.000,0.399378,
3071.000,0.406186,
3070.000,0.413397,
3069.000,0.420364,
3068.000,0.426581,
3067.000,0.432241,
3066.000,0.437986,
3065.000,0.444188,
3064.000,0.450723,
3063.000,0.457375,
3062.000,0.464132,
3061.000,0.47102,
3060.000,0.477965,
3059.000,0.485013,
3058.000,0.492449,
3057.000,0.500479,
3056.000,0.508929,
3055.000,0.517451,
3054.000,0.525931,
3053.000,0.534558,
3052.000,0.543569,
3051.000,0.553089,
3050.000,0.563124,
3049.000,0.57356,
3048.000,0.58419,
3047.000,0.594828,
3046.000,0.605435,
3045.000,0.616149,
3044.000,0.627304,
3043.000,0.639305,
3042.000,0.65217,
3041.000,0.665182,
3040.000,0.677361,
3039.000,0.688523,
3038.000,0.699606,
3037.000,0.711658,
3036.000,0.724761,
3035.000,0.738185,
3034.000,0.751356,
3033.000,0.764234,
3032.000,0.77695,
3031.000,0.789645,
3030.000,0.8027,
3029.000,0.816613,
3028.000,0.831453,
3027.000,0.846717,
3026.000,0.861887,
3025.000,0.876861,
3024.000,0.891757,
3023.000,0.90671,
3022.000,0.922056,
3021.000,0.938391,
3020.000,0.956071,
3019.000,0.974768,
3018.000,0.993838,
3017.000,1.01301,
3016.000,1.03251,
3015.000,1.05265,
3014.000,1.07344,
3013.000,1.09466,
3012.000,1.11609,
3011.000,1.13763,
3010.000,1.15938,
3009.000,1.18156,
3008.000,1.20419,
3007.000,1.22702,
3006.000,1.24988,
3005.000,1.27306,
3004.000,1.29692,
3003.000,1.32119,
3002.000,1.34497,
3001.000,1.36752,
3000.000,1.3889,
2999.000,1.40959,
2998.000,1.42967,
2997.000,1.4485,
2996.000,1.46524,
2995.000,1.47922,
2994.000,1.48994,
2993.000,1.49696,
2992.000,1.49991,
2991.000,1.49849,
2990.000,1.49233,
2989.000,1.48089,
2988.000,1.46362,
2987.000,1.44021,
2986.000,1.41069,
2985.000,1.37516,
2984.000,1.33369,
2983.000,1.28642,
2982.000,1.23378,
2981.000,1.17675,
2980.000,1.11654,
2979.000,1.05413,
2978.000,0.989958,
2977.000,0.924131,
2976.000,0.857161,
2975.000,0.790318,
2974.000,0.725304,
2973.000,0.663444,
2972.000,0.605279,
2971.000,0.550829,
2970.000,0.500155,
2969.000,0.453528,
2968.000,0.411094,
2967.000,0.372718,
2966.000,0.338153,
2965.000,0.30731,
2964.000,0.280089,
2963.000,0.256081,
2962.000,0.234745,
2961.000,0.215815,
2960.000,0.199488,
2959.000,0.186013,
2958.000,0.175189,
2957.000,0.166283,
2956.000,0.158329,
2955.000,0.150639,
2954.000,0.143049,
2953.000,0.135758,
2952.000,0.128936,
2951.000,0.12252,
2950.000,0.116449,
2949.000,0.110865,
2948.000,0.105907,
2947.000,0.10141,
2946.000,0.0970105,
2945.000,0.0925776,
2944.000,0.0883004,
2943.000,0.0843639,
2942.000,0.0807552,
2941.000,0.0774622,
2940.000,0.0746905,
2939.000,0.0727159,
2938.000,0.0715748,
2937.000,0.0710618,
2936.000,0.0710639,
2935.000,0.0717424,
2934.000,0.0732717,
2933.000,0.075533,
2932.000,0.0782617,
2931.000,0.0814444,
2930.000,0.085374,
2929.000,0.090268,
2928.000,0.0959994,
2927.000,0.102327,
2926.000,0.109258,
2925.000,0.116986,
2924.000,0.125501,
2923.000,0.134506,
2922.000,0.143843,
2921.000,0.153737,
2920.000,0.164478,
2919.000,0.17603,
2918.000,0.188139,
2917.000,0.200711,
2916.000,0.213918,
2915.000,0.227998,
2914.000,0.243092,
2913.000,0.25907,
2912.000,0.27537,
2911.000,0.291143,
2910.000,0.305841,
2909.000,0.319639,
2908.000,0.333094,
2907.000,0.346451,
2906.000,0.359508,
2905.000,0.37214,
2904.000,0.384652,
2903.000,0.397528,
2902.000,0.411025,
2901.000,0.425105,
2900.000,0.439609,
2899.000,0.454358,
2898.000,0.469173,
2897.000,0.483855,
2896.000,0.498122,
2895.000,0.511679,
2894.000,0.524525,
2893.000,0.537152,
2892.000,0.550135,
2891.000,0.563341,
2890.000,0.575759,
2889.000,0.586275,
2888.000,0.594453,
2887.000,0.600389,
2886.000,0.603942,
2885.000,0.604505,
2884.000,0.60156,
2883.000,0.595168,
2882.000,0.585734,
2881.000,0.573452,
2880.000,0.558201,
2879.000,0.539961,
2878.000,0.519128,
2877.000,0.496318,
2876.000,0.472005,
2875.000,0.446502,
2874.000,0.420238,
2873.000,0.393849,
2872.000,0.367822,
2871.000,0.342254,
2870.000,0.317151,
2869.000,0.292921,
2868.000,0.270448,
2867.000,0.250716,
2866.000,0.234526,
2865.000,0.22241,
2864.000,0.214436,
2863.000,0.210098,
2862.000,0.208736,
2861.000,0.210299,
2860.000,0.215502,
2859.000,0.225085,
2858.000,0.239138,
2857.000,0.257282,
2856.000,0.279362,
2855.000,0.305773,
2854.000,0.337136,
2853.000,0.373779,
2852.000,0.415539,
2851.000,0.46203,
2850.000,0.513078,
2849.000,0.568771,
2848.000,0.628891,
2847.000,0.692398,
2846.000,0.757631,
2845.000,0.822964,
2844.000,0.887103,
2843.000,0.948752,
2842.000,1.00642,
2841.000,1.05882,
2840.000,1.10522,
2839.000,1.14514,
2838.000,1.17807,
2837.000,1.2037,
2836.000,1.22252,
2835.000,1.23553,
2834.000,1.24357,
2833.000,1.2471,
2832.000,1.24672,
2831.000,1.24351,
2830.000,1.23875,
2829.000,1.23363,
2828.000,1.22929,
2827.000,1.22669,
2826.000,1.22625,
2825.000,1.2278,
2824.000,1.23101,
2823.000,1.23562,
2822.000,1.24117,
2821.000,1.24675,
2820.000,1.2515,
2819.000,1.25502,
2818.000,1.25731,
2817.000,1.25813,
2816.000,1.25709,
2815.000,1.25392,
2814.000,1.24869,
2813.000,1.24158,
2812.000,1.2327,
2811.000,1.22229,
2810.000,1.21079,
2809.000,1.19856,
2808.000,1.18564,
2807.000,1.1719,
2806.000,1.15729,
2805.000,1.14191,
2804.000,1.12582,
2803.000,1.10878,
2802.000,1.09063,
2801.000,1.07167,
2800.000,1.05276,
2799.000,1.0347,
2798.000,1.01759,
2797.000,1.00111,
2796.000,0.985171,
2795.000,0.970145,
2794.000,0.956349,
2793.000,0.943577,
2792.000,0.931321,
2791.000,0.919297,
2790.000,0.907467,
2789.000,0.895643,
2788.000,0.88336,
2787.000,0.870237,
2786.000,0.856318,
2785.000,0.841943,
2784.000,0.827424,
2783.000,0.812932,
2782.000,0.798586,
2781.000,0.784419,
2780.000,0.77027,
2779.000,0.755906,
2778.000,0.741361,
2777.000,0.727024,
2776.000,0.713273,
2775.000,0.700087,
2774.000,0.687154,
2773.000,0.674297,
2772.000,0.661652,
2771.000,0.649431,
2770.000,0.637647,
2769.000,0.626077,
2768.000,0.614396,
2767.000,0.60238,
2766.000,0.590134,
2765.000,0.578133,
2764.000,0.566872,
2763.000,0.556387,
2762.000,0.546259,
2761.000,0.536134,
2760.000,0.526097,
2759.000,0.516418,
2758.000,0.507131,
2757.000,0.498008,
2756.000,0.48891,
2755.000,0.479942,
2754.000,0.471278,
2753.000,0.462941,
2752.000,0.454765,
2751.000,0.446517,
2750.000,0.438041,
2749.000,0.429323,
2748.000,0.420477,
2747.000,0.41168,
2746.000,0.403126,
2745.000,0.394955,
2744.000,0.387158,
2743.000,0.379595,
2742.000,0.372187,
2741.000,0.365029,
2740.000,0.35817,
2739.000,0.351382,
2738.000,0.344365,
2737.000,0.337165,
2736.000,0.330123,
2735.000,0.323388,
2734.000,0.316769,
2733.000,0.310196,
2732.000,0.304018,
2731.000,0.298587,
2730.000,0.293693,
2729.000,0.288682,
2728.000,0.2831,
2727.000,0.27704,
2726.000,0.270951,
2725.000,0.265297,
2724.000,0.260336,
2723.000,0.255987,
2722.000,0.251849,
2721.000,0.247477,
2720.000,0.242707,
2719.000,0.237691,
2718.000,0.232724,
2717.000,0.228121,
2716.000,0.224162,
2715.000,0.22096,
2714.000,0.218332,
2713.000,0.215894,
2712.000,0.213296,
2711.000,0.210344,
2710.000,0.207016,
2709.000,0.203464,
2708.000,0.199952,
2707.000,0.196662,
2706.000,0.193557,
2705.000,0.19053,
2704.000,0.187635,
2703.000,0.18509,
2702.000,0.18304,
2701.000,0.181358,
2700.000,0.179651,
2699.000,0.177476,
2698.000,0.174701,
2697.000,0.171714,
2696.000,0.169118,
2695.000,0.167125,
2694.000,0.165366,
2693.000,0.16341,
2692.000,0.161271,
2691.000,0.159201,
2690.000,0.157205,
2689.000,0.155094,
2688.000,0.15288,
2687.000,0.150774,
2686.000,0.148839,
2685.000,0.147011,
2684.000,0.145462,
2683.000,0.144499,
2682.000,0.143984,
2681.000,0.143242,
2680.000,0.141832,
2679.000,0.140167,
2678.000,0.138996,
2677.000,0.138419,
2676.000,0.137722,
2675.000,0.136228,
2674.000,0.134069,
2673.000,0.132046,
2672.000,0.130844,
2671.000,0.130435,
2670.000,0.130232,
2669.000,0.129766,
2668.000,0.129127,
2667.000,0.12867,
2666.000,0.128399,
2665.000,0.127893,
2664.000,0.126897,
2663.000,0.125701,
2662.000,0.124722,
2661.000,0.123941,
2660.000,0.123066,
2659.000,0.122123,
2658.000,0.121496,
2657.000,0.121285,
2656.000,0.120982,
2655.000,0.120006,
2654.000,0.118382,
2653.000,0.116699,
2652.000,0.115517,
2651.000,0.114971,
2650.000,0.11484,
2649.000,0.114774,
2648.000,0.114471,
2647.000,0.113869,
2646.000,0.113179,
2645.000,0.112606,
2644.000,0.112032,
2643.000,0.111163,
2642.000,0.10999,
2641.000,0.108877,
2640.000,0.108066,
2639.000,0.107347,
2638.000,0.106453,
2637.000,0.105593,
2636.000,0.105294,
2635.000,0.105733,
2634.000,0.106504,
2633.000,0.10712,
2632.000,0.107442,
2631.000,0.107512,
2630.000,0.107243,
2629.000,0.106537,
2628.000,0.10559,
2627.000,0.104794,
2626.000,0.104309,
2625.000,0.103865,
2624.000,0.103083,
2623.000,0.10194,
2622.000,0.100849,
2621.000,0.100283,
2620.000,0.100295,
2619.000,0.100397,
2618.000,0.10001,
2617.000,0.0990415,
2616.000,0.0979601,
2615.000,0.0973337,
2614.000,0.097373,
2613.000,0.0978553,
2612.000,0.0983395,
2611.000,0.0984424,
2610.000,0.0980438,
2609.000,0.0973566,
2608.000,0.0967845,
2607.000,0.0966081,
2606.000,0.0967872,
2605.000,0.0970885,
2604.000,0.0973266,
2603.000,0.0974204,
2602.000,0.0973329,
2601.000,0.09707,
2600.000,0.0966618,
2599.000,0.0961049,
2598.000,0.0954477,
2597.000,0.0949985,
2596.000,0.0952373,
2595.000,0.0962607,
2594.000,0.0974151,
2593.000,0.0977781,
2592.000,0.0970661,
2591.000,0.095887,
2590.000,0.0950903,
2589.000,0.095029,
2588.000,0.0954179,
2587.000,0.0957167,
2586.000,0.0955765,
2585.000,0.0950515,
2584.000,0.0944912,
2583.000,0.0941932,
2582.000,0.0941228,
2581.000,0.0939973,
2580.000,0.0936095,
2579.000,0.0930067,
2578.000,0.0924311,
2577.000,0.0921999,
2576.000,0.0925326,
2575.000,0.093309,
2574.000,0.0940695,
2573.000,0.0944725,
2572.000,0.0947159,
2571.000,0.0952167,
2570.000,0.0958856,
2569.000,0.0960944,
2568.000,0.0955199,
2567.000,0.0946712,
2566.000,0.0942754,
2565.000,0.0943913,
2564.000,0.0944958,
2563.000,0.0943228,
2562.000,0.0941761,
2561.000,0.0943888,
2560.000,0.0948668,
2559.000,0.09532,
2558.000,0.0956739,
2557.000,0.0960378,
2556.000,0.0964226,
2555.000,0.0967007,
2554.000,0.0967794,
2553.000,0.0966723,
2552.000,0.0964632,
2551.000,0.096301,
2550.000,0.0963403,
2549.000,0.0965569,
2548.000,0.0966841,
2547.000,0.0964767,
2546.000,0.0960162,
2545.000,0.0956443,
2544.000,0.0955974,
2543.000,0.0958032,
2542.000,0.0960525,
2541.000,0.0962844,
2540.000,0.0966544,
2539.000,0.0973584,
2538.000,0.0984164,
2537.000,0.0995732,
2536.000,0.100429,
2535.000,0.10077,
2534.000,0.100813,
2533.000,0.101033,
2532.000,0.101713,
2531.000,0.102673,
2530.000,0.103536,
2529.000,0.10421,
2528.000,0.104963,
2527.000,0.10599,
2526.000,0.10706,
2525.000,0.10771,
2524.000,0.10773,
2523.000,0.10734,
2522.000,0.106904,
2521.000,0.106612,
2520.000,0.106507,
2519.000,0.106685,
2518.000,0.107269,
2517.000,0.1082,
2516.000,0.109225,
2515.000,0.110098,
2514.000,0.110689,
2513.000,0.110949,
2512.000,0.110955,
2511.000,0.111061,
2510.000,0.111786,
2509.000,0.11335,
2508.000,0.115316,
2507.000,0.116871,
2506.000,0.117524,
2505.000,0.117487,
2504.000,0.117385,
2503.000,0.11772,
2502.000,0.118606,
2501.000,0.119864,
2500.000,0.121234,
2499.000,0.122478,
2498.000,0.123425,
2497.000,0.124052,
2496.000,0.124578,
2495.000,0.125387,
2494.000,0.126734,
2493.000,0.128425,
2492.000,0.129902,
2491.000,0.130781,
2490.000,0.131294,
2489.000,0.132078,
2488.000,0.133497,
2487.000,0.135312,
2486.000,0.137014,
2485.000,0.1383,
2484.000,0.139186,
2483.000,0.139879,
2482.000,0.14071,
2481.000,0.142039,
2480.000,0.143969,
2479.000,0.146122,
2478.000,0.147904,
2477.000,0.149105,
2476.000,0.150112,
2475.000,0.151485,
2474.000,0.153398,
2473.000,0.155581,
2472.000,0.157696,
2471.000,0.159631,
2470.000,0.161454,
2469.000,0.163203,
2468.000,0.164815,
2467.000,0.166252,
2466.000,0.167613,
2465.000,0.169123,
2464.000,0.171025,
2463.000,0.173463,
2462.000,0.176367,
2461.000,0.179386,
2460.000,0.182019,
2459.000,0.184016,
2458.000,0.185699,
2457.000,0.187722,
2456.000,0.190396,
2455.000,0.193414,
2454.000,0.196306,
2453.000,0.199029,
2452.000,0.201872,
2451.000,0.204907,
2450.000,0.207876,
2449.000,0.210637,
2448.000,0.213454,
2447.000,0.21667,
2446.000,0.220283,
2445.000,0.224021,
2444.000,0.227739,
2443.000,0.231557,
2442.000,0.235651,
2441.000,0.24006,
2440.000,0.244693,
2439.000,0.249402,
2438.000,0.254039,
2437.000,0.258553,
2436.000,0.263065,
2435.000,0.267756,
2434.000,0.272681,
2433.000,0.277745,
2432.000,0.28287,
2431.000,0.288094,
2430.000,0.29348,
2429.000,0.298973,
2428.000,0.304374,
2427.000,0.309438,
2426.000,0.314041,
2425.000,0.318332,
2424.000,0.322715,
2423.000,0.327571,
2422.000,0.332963,
2421.000,0.338685,
2420.000,0.344594,
2419.000,0.350799,
2418.000,0.35745,
2417.000,0.364498,
2416.000,0.371761,
2415.000,0.379182,
2414.000,0.386857,
2413.000,0.394783,
2412.000,0.402723,
2411.000,0.410442,
2410.000,0.41798,
2409.000,0.425592,
2408.000,0.433442,
2407.000,0.441476,
2406.000,0.449617,
2405.000,0.457948,
2404.000,0.466571,
2403.000,0.475356,
2402.000,0.483988,
2401.000,0.492306,
2400.000,0.500494,
2399.000,0.508909,
2398.000,0.517808,
2397.000,0.527265,
2396.000,0.537179,
2395.000,0.547313,
2394.000,0.557195,
2393.000,0.566663,
2392.000,0.575583,
2391.000,0.58529,
2390.000,0.59532,
2389.000,0.60569,
2388.000,0.616641,
2387.000,0.627959,
2386.000,0.639715,
2385.000,0.65188,
2384.000,0.664432,
2383.000,0.677216,
2382.000,0.690115,
2381.000,0.703388,
2380.000,0.717724,
2379.000,0.733672,
2378.000,0.751023,
2377.000,0.769001,
2376.000,0.787134,
2375.000,0.805664,
2374.000,0.824994,
2373.000,0.84505,
2372.000,0.865428,
2371.000,0.885881,
2370.000,0.906329,
2369.000,0.926552,
2368.000,0.94627,
2367.000,0.965579,
2366.000,0.98483,
2365.000,1.00409,
2364.000,1.02299,
2363.000,1.0412,
2362.000,1.0589,
2361.000,1.07668,
2360.000,1.09496,
2359.000,1.1136,
2358.000,1.13182,
2357.000,1.1488,
2356.000,1.16435,
2355.000,1.17886,
2354.000,1.19243,
2353.000,1.2042,
2352.000,1.21321,
2351.000,1.22,
2350.000,1.22715,
2349.000,1.23808,
2348.000,1.25519,
2347.000,1.27868,
2346.000,1.30656,
2345.000,1.33583,
2344.000,1.3639,
2343.000,1.39002,
2342.000,1.41054,
2341.000,1.4327,
2340.000,1.4406,
2339.000,1.46682,
2338.000,1.45561,
2337.000,1.52249,
2336.000,1.1463,
2335.000,1.05271,
2334.000,1.09137,
2333.000,1.072,
2332.000,1.0784,
2331.000,1.06815,
2330.000,1.06637,
2329.000,1.06329,
2328.000,1.06593,
2327.000,1.07011,
2326.000,1.07653,
2325.000,1.08142,
2324.000,1.08521,
2323.000,1.08638,
2322.000,1.08517,
2321.000,1.08514,
2320.000,1.08748,
2319.000,1.09499,
2318.000,1.10458,
2317.000,1.1152,
2316.000,1.12246,
2315.000,1.12781,
2314.000,1.12296,
2313.000,1.12253,
2312.000,1.10244,
2311.000,1.11399,
2310.000,1.06282,
2309.000,1.43077,
2308.000,1.49314,
2307.000,1.44788,
2306.000,1.44314,
2305.000,1.42365,
2304.000,1.3986,
2303.000,1.40537,
2302.000,1.16447,
2301.000,1.11884,
2300.000,1.13678,
2299.000,1.12594,
2298.000,1.12841,
2297.000,1.12277,
2296.000,1.12108,
2295.000,1.11673,
2294.000,1.11223,
2293.000,1.10657,
2292.000,1.10059,
2291.000,1.09422,
2290.000,1.08708,
2289.000,1.07837,
2288.000,1.06836,
2287.000,1.05787,
2286.000,1.04754,
2285.000,1.03698,
2284.000,1.02554,
2283.000,1.01307,
2282.000,0.999946,
2281.000,0.986609,
2280.000,0.973092,
2279.000,0.959333,
2278.000,0.945072,
2277.000,0.930157,
2276.000,0.914547,
2275.000,0.898726,
2274.000,0.883239,
2273.000,0.868225,
2272.000,0.853402,
2271.000,0.83849,
2270.000,0.823641,
2269.000,0.809211,
2268.000,0.795428,
2267.000,0.78217,
2266.000,0.769028,
2265.000,0.755611,
2264.000,0.741879,
2263.000,0.728116,
2262.000,0.714676,
2261.000,0.701467,
2260.000,0.688197,
2259.000,0.674728,
2258.000,0.661261,
2257.000,0.648049,
2256.000,0.634982,
2255.000,0.621888,
2254.000,0.608806,
2253.000,0.596135,
2252.000,0.584175,
2251.000,0.572887,
2250.000,0.561961,
2249.000,0.551081,
2248.000,0.540128,
2247.000,0.529192,
2246.000,0.518503,
2245.000,0.508189,
2244.000,0.498119,
2243.000,0.488026,
2242.000,0.477891,
2241.000,0.467989,
2240.000,0.458507,
2239.000,0.449273,
2238.000,0.44005,
2237.000,0.430883,
2236.000,0.421921,
2235.000,0.413037,
2234.000,0.403992,
2233.000,0.394976,
2232.000,0.38659,
2231.000,0.379148,
2230.000,0.372235,
2229.000,0.36516,
2228.000,0.357641,
2227.000,0.349883,
2226.000,0.342169,
2225.000,0.334649,
2224.000,0.327412,
2223.000,0.320474,
2222.000,0.313675,
2221.000,0.306809,
2220.000,0.299908,
2219.000,0.293283,
2218.000,0.287209,
2217.000,0.281674,
2216.000,0.276433,
2215.000,0.271174,
2214.000,0.26563,
2213.000,0.25969,
2212.000,0.253497,
2211.000,0.247406,
2210.000,0.24173,
2209.000,0.236536,
2208.000,0.231672,
2207.000,0.226938,
2206.000,0.22221,
2205.000,0.217485,
2204.000,0.212879,
2203.000,0.208574,
2202.000,0.204694,
2201.000,0.201156,
2200.000,0.197654,
2199.000,0.19385,
2198.000,0.189658,
2197.000,0.185374,
2196.000,0.181484,
2195.000,0.178247,
2194.000,0.175411,
2193.000,0.172376,
2192.000,0.168701,
2191.000,0.164467,
2190.000,0.160166,
2189.000,0.156283,
2188.000,0.153022,
2187.000,0.150342,
2186.000,0.148076,
2185.000,0.145984,
2184.000,0.143846,
2183.000,0.141597,
2182.000,0.139312,
2181.000,0.137012,
2180.000,0.134586,
2179.000,0.131995,
2178.000,0.129463,
2177.000,0.127277,
2176.000,0.125387,
2175.000,0.123399,
2174.000,0.121067,
2173.000,0.118648,
2172.000,0.116663,
2171.000,0.115402,
2170.000,0.114735,
2169.000,0.114301,
2168.000,0.113762,
2167.000,0.112869,
2166.000,0.111477,
2165.000,0.109677,
2164.000,0.107808,
2163.000,0.106205,
2162.000,0.104914,
2161.000,0.103671,
2160.000,0.102193,
2159.000,0.100478,
2158.000,0.0988084,
2157.000,0.0974513,
2156.000,0.0963755,
2155.000,0.0952742,
2154.000,0.0938645,
2153.000,0.092181,
2152.000,0.0905895,
2151.000,0.0894716,
2150.000,0.0888603,
2149.000,0.0884202,
2148.000,0.0878141,
2147.000,0.0870336,
2146.000,0.0862661,
2145.000,0.0855066,
2144.000,0.0844946,
2143.000,0.0830803,
2142.000,0.0814702,
2141.000,0.0799666,
2140.000,0.0786257,
2139.000,0.0773854,
2138.000,0.076422,
2137.000,0.0760534,
2136.000,0.0762609,
2135.000,0.076559,
2134.000,0.0764232,
2133.000,0.0757,
2132.000,0.0745565,
2131.000,0.0732541,
2130.000,0.0721014,
2129.000,0.0714376,
2128.000,0.0714353,
2127.000,0.0718737,
2126.000,0.072201,
2125.000,0.0718921,
2124.000,0.0708218,
2123.000,0.0693649,
2122.000,0.0681024,
2121.000,0.0673603,
2120.000,0.0670197,
2119.000,0.0668336,
2118.000,0.066813,
2117.000,0.067109,
2116.000,0.0675933,
2115.000,0.0678536,
2114.000,0.0676641,
2113.000,0.0671871,
2112.000,0.0665794,
2111.000,0.0656707,
2110.000,0.0642552,
2109.000,0.0625393,
2108.000,0.0610383,
2107.000,0.0600997,
2106.000,0.0597124,
2105.000,0.0597041,
2104.000,0.0598701,
2103.000,0.0599211,
2102.000,0.0595774,
2101.000,0.0588232,
2100.000,0.0579519,
2099.000,0.0572939,
2098.000,0.0569439,
2097.000,0.0567514,
2096.000,0.0565081,
2095.000,0.0561125,
2094.000,0.0556117,
2093.000,0.0551398,
2092.000,0.0548327,
2091.000,0.0547782,
2090.000,0.0549793,
2089.000,0.0552672,
2088.000,0.0553006,
2087.000,0.0548192,
2086.000,0.0540172,
2085.000,0.0535049,
2084.000,0.0536499,
2083.000,0.0541077,
2082.000,0.0542108,
2081.000,0.0537469,
2080.000,0.0531648,
2079.000,0.0530159,
2078.000,0.0533853,
2077.000,0.0539165,
2076.000,0.0542299,
2075.000,0.0541881,
2074.000,0.053836,
2073.000,0.053269,
2072.000,0.0526178,
2071.000,0.0520572,
2070.000,0.0516833,
2069.000,0.0513825,
2068.000,0.0509541,
2067.000,0.0504202,
2066.000,0.050064,
2065.000,0.0500109,
2064.000,0.0499358,
2063.000,0.0494358,
2062.000,0.0486264,
2061.000,0.0480888,
2060.000,0.0481798,
2059.000,0.0486476,
2058.000,0.0490351,
2057.000,0.0492048,
2056.000,0.0492697,
2055.000,0.0492549,
2054.000,0.0491207,
2053.000,0.0489912,
2052.000,0.0490509,
2051.000,0.0492292,
2050.000,0.0492381,
2049.000,0.0489159,
2048.000,0.0483231,
2047.000,0.0475337,
2046.000,0.0465975,
2045.000,0.0457351,
2044.000,0.0453195,
2043.000,0.0455488,
2042.000,0.0462186,
2041.000,0.046851,
2040.000,0.0470104,
2039.000,0.0465517,
2038.000,0.0457381,
2037.000,0.0451552,
2036.000,0.0452958,
2035.000,0.0460932,
2034.000,0.0469426,
2033.000,0.0472347,
2032.000,0.046822,
2031.000,0.0460511,
2030.000,0.0454791,
2029.000,0.045507,
2028.000,0.0460916,
2027.000,0.0467456,
2026.000,0.0469504,
2025.000,0.0466754,
2024.000,0.0463817,
2023.000,0.0464447,
2022.000,0.0467105,
2021.000,0.0467434,
2020.000,0.0464279,
2019.000,0.0461248,
2018.000,0.0461823,
2017.000,0.0464997,
2016.000,0.04667,
2015.000,0.0464453,
2014.000,0.0459452,
2013.000,0.0454311,
2012.000,0.0450536,
2011.000,0.0448778,
2010.000,0.0449791,
2009.000,0.0453614,
2008.000,0.0458552,
2007.000,0.0462191,
2006.000,0.0463668,
2005.000,0.0464245,
2004.000,0.0464721,
2003.000,0.0463592,
2002.000,0.0459112,
2001.000,0.0452753,
2000.000,0.0449342,
1999.000,0.0452804,
1998.000,0.0461939,
1997.000,0.04706,
1996.000,0.0473147,
1995.000,0.0470155,
1994.000,0.0467777,
1993.000,0.0470789,
1992.000,0.047698,
1991.000,0.0479837,
1990.000,0.0476738,
1989.000,0.0472046,
1988.000,0.0471247,
1987.000,0.0474448,
1986.000,0.0477605,
1985.000,0.0478883,
1984.000,0.0481005,
1983.000,0.0486719,
1982.000,0.0493789,
1981.000,0.0496302,
1980.000,0.0491167,
1979.000,0.0481819,
1978.000,0.047493,
1977.000,0.0474435,
1976.000,0.0479703,
1975.000,0.0487493,
1974.000,0.0493926,
1973.000,0.0496043,
1972.000,0.0494179,
1971.000,0.0492745,
1970.000,0.0496073,
1969.000,0.0502964,
1968.000,0.0507399,
1967.000,0.0505512,
1966.000,0.0500192,
1965.000,0.0497166,
1964.000,0.0498122,
1963.000,0.0500421,
1962.000,0.0502244,
1961.000,0.0504363,
1960.000,0.0506673,
1959.000,0.0507137,
1958.000,0.0505963,
1957.000,0.0507421,
1956.000,0.0514968,
1955.000,0.0526602,
1954.000,0.0537113,
1953.000,0.0543522,
1952.000,0.0546619,
1951.000,0.0548403,
1950.000,0.055006,
1949.000,0.0552275,
1948.000,0.0555372,
1947.000,0.0559304,
1946.000,0.0564633,
1945.000,0.057253,
1944.000,0.0582284,
1943.000,0.0589642,
1942.000,0.0589746,
1941.000,0.0582338,
1940.000,0.0572904,
1939.000,0.0568264,
1938.000,0.0570945,
1937.000,0.057752,
1936.000,0.0582502,
1935.000,0.0584047,
1934.000,0.0585547,
1933.000,0.0591097,
1932.000,0.0599964,
1931.000,0.0607084,
1930.000,0.0609002,
1929.000,0.0607596,
1928.000,0.0606616,
1927.000,0.0607476,
1926.000,0.0610123,
1925.000,0.0615564,
1924.000,0.0625469,
1923.000,0.0638988,
1922.000,0.0653195,
1921.000,0.0665992,
1920.000,0.0676895,
1919.000,0.0685914,
1918.000,0.0693407,
1917.000,0.070108,
1916.000,0.0710629,
1915.000,0.0720757,
1914.000,0.0727937,
1913.000,0.0730303,
1912.000,0.0729588,
1911.000,0.0728862,
1910.000,0.0730284,
1909.000,0.0735633,
1908.000,0.0746253,
1907.000,0.076177,
1906.000,0.0779901,
1905.000,0.0797582,
1904.000,0.0812145,
1903.000,0.0821276,
1902.000,0.0825247,
1901.000,0.0828605,
1900.000,0.0836823,
1899.000,0.0851214,
1898.000,0.0867806,
1897.000,0.0881312,
1896.000,0.0889893,
1895.000,0.089541,
1894.000,0.0901745,
1893.000,0.0913402,
1892.000,0.0933148,
1891.000,0.095926,
1890.000,0.0985436,
1889.000,0.100543,
1888.000,0.101791,
1887.000,0.102622,
1886.000,0.103514,
1885.000,0.104812,
1884.000,0.106697,
1883.000,0.109166,
1882.000,0.111885,
1881.000,0.1143,
1880.000,0.116086,
1879.000,0.11749,
1878.000,0.119061,
1877.000,0.121092,
1876.000,0.123547,
1875.000,0.126275,
1874.000,0.129107,
1873.000,0.131988,
1872.000,0.135044,
1871.000,0.138371,
1870.000,0.141679,
1869.000,0.144371,
1868.000,0.146284,
1867.000,0.148061,
1866.000,0.150548,
1865.000,0.154102,
1864.000,0.158365,
1863.000,0.162711,
1862.000,0.166968,
1861.000,0.171382,
1860.000,0.176087,
1859.000,0.180989,
1858.000,0.186007,
1857.000,0.191086,
1856.000,0.196145,
1855.000,0.201206,
1854.000,0.206369,
1853.000,0.211674,
1852.000,0.217134,
1851.000,0.223079,
1850.000,0.230042,
1849.000,0.237851,
1848.000,0.245939,
1847.000,0.2541,
1846.000,0.262129,
1845.000,0.26886,
1844.000,0.272902,
1843.000,0.275189,
1842.000,0.279303,
1841.000,0.287798,
1840.000,0.299488,
1839.000,0.311234,
1838.000,0.321548,
1837.000,0.330618,
1836.000,0.339705,
1835.000,0.347659,
1834.000,0.354596,
1833.000,0.363501,
1832.000,0.372345,
1831.000,0.381578,
1830.000,0.390928,
1829.000,0.400348,
1828.000,0.410127,
1827.000,0.419891,
1826.000,0.43107,
1825.000,0.442284,
1824.000,0.449477,
1823.000,0.457913,
1822.000,0.469395,
1821.000,0.483157,
1820.000,0.495977,
1819.000,0.506604,
1818.000,0.515704,
1817.000,0.524055,
1816.000,0.531758,
1815.000,0.538694,
1814.000,0.54516,
1813.000,0.551007,
1812.000,0.555383,
1811.000,0.557935,
1810.000,0.558984,
1809.000,0.559476,
1808.000,0.560528,
1807.000,0.563122,
1806.000,0.568153,
1805.000,0.576317,
1804.000,0.587917,
1803.000,0.602546,
1802.000,0.619511,
1801.000,0.638088,
1800.000,0.658021,
1799.000,0.679783,
1798.000,0.703097,
1797.000,0.726976,
1796.000,0.750244,
1795.000,0.771946,
1794.000,0.790614,
1793.000,0.802972,
1792.000,0.806503,
1791.000,0.804147,
1790.000,0.801311,
1789.000,0.800404,
1788.000,0.800153,
1787.000,0.79689,
1786.000,0.787063,
1785.000,0.769594,
1784.000,0.747133,
1783.000,0.724601,
1782.000,0.704772,
1781.000,0.685003,
1780.000,0.661222,
1779.000,0.633854,
1778.000,0.605358,
1777.000,0.577037,
1776.000,0.548773,
1775.000,0.521136,
1774.000,0.494206,
1773.000,0.46498,
1772.000,0.431743,
1771.000,0.398873,
1770.000,0.371382,
1769.000,0.349463,
1768.000,0.33111,
1767.000,0.315427,
1766.000,0.303656,
1765.000,0.296606,
1764.000,0.292133,
1763.000,0.286234,
1762.000,0.276176,
1761.000,0.262541,
1760.000,0.248302,
1759.000,0.23559,
1758.000,0.22356,
1757.000,0.210069,
1756.000,0.194826,
1755.000,0.1804,
1754.000,0.168978,
1753.000,0.159769,
1752.000,0.150594,
1751.000,0.140673,
1750.000,0.130926,
1749.000,0.12233,
1748.000,0.114869,
1747.000,0.108191,
1746.000,0.102267,
1745.000,0.0966191,
1744.000,0.0904812,
1743.000,0.0836776,
1742.000,0.0766511,
1741.000,0.0697879,
1740.000,0.0630949,
1739.000,0.056758,
1738.000,0.0514377,
1737.000,0.047585,
1736.000,0.0447728,
1735.000,0.0420771,
1734.000,0.038769,
1733.000,0.0350044,
1732.000,0.0315851,
1731.000,0.028677,
1730.000,0.0256739,
1729.000,0.0221896,
1728.000,0.0186144,
1727.000,0.0156587,
1726.000,0.0135678,
1725.000,0.0119357,
1724.000,0.0102158,
1723.000,0.00828538,
1722.000,0.00662894,
1721.000,0.00574001,
1720.000,0.00536772,
1719.000,0.00486953,
1718.000,0.00395932,
1717.000,0.00294215,
1716.000,0.00226683,
1715.000,0.00198799,
1714.000,0.00192494,
1713.000,0.00176533,
1712.000,0.00142891,
1711.000,0.00118662,
1710.000,0.00109771,
1709.000,0.00118551,
1708.000,0.00161238,
1707.000,0.00232204,
1706.000,0.00303914,
1705.000,0.0037788,
1704.000,0.00478698,
1703.000,0.00620421,
1702.000,0.0084176,
1701.000,0.0118992,
1700.000,0.015981,
1699.000,0.0194919,
1698.000,0.0229936,
1697.000,0.0279065,
1696.000,0.0347814,
1695.000,0.0426335,
1694.000,0.0499739,
1693.000,0.0573562,
1692.000,0.0660053,
1691.000,0.0759129,
1690.000,0.0870152,
1689.000,0.0997182,
1688.000,0.11436,
1687.000,0.131283,
1686.000,0.151021,
1685.000,0.173338,
1684.000,0.195064,
1683.000,0.212288,
1682.000,0.224506,
1681.000,0.235333,
1680.000,0.247334,
1679.000,0.258569,
1678.000,0.267955,
1677.000,0.276142,
1676.000,0.283556,
1675.000,0.29037,
1674.000,0.298949,
1673.000,0.313517,
1672.000,0.334802,
1671.000,0.358205,
1670.000,0.379025,
1669.000,0.396969,
1668.000,0.414039,
1667.000,0.432438,
1666.000,0.453787,
1665.000,0.476311,
1664.000,0.495471,
1663.000,0.507199,
1662.000,0.511481,
1661.000,0.511816,
1660.000,0.510357,
1659.000,0.507028,
1658.000,0.500301,
1657.000,0.490222,
1656.000,0.478493,
1655.000,0.465867,
1654.000,0.448052,
1653.000,0.423141,
1652.000,0.396432,
1651.000,0.379423,
1650.000,0.370117,
1649.000,0.358864,
1648.000,0.348051,
1647.000,0.337613,
1646.000,0.327032,
1645.000,0.31611,
1644.000,0.305693,
1643.000,0.296105,
1642.000,0.287246,
1641.000,0.277783,
1640.000,0.268806,
1639.000,0.258575,
1638.000,0.25303,
1637.000,0.249153,
1636.000,0.24038,
1635.000,0.231244,
1634.000,0.220401,
1633.000,0.212215,
1632.000,0.20863,
1631.000,0.207575,
1630.000,0.206292,
1629.000,0.204083,
1628.000,0.201039,
1627.000,0.197549,
1626.000,0.193611,
1625.000,0.188651,
1624.000,0.182063,
1623.000,0.174099,
1622.000,0.166104,
1621.000,0.15944,
1620.000,0.15457,
1619.000,0.150968,
1618.000,0.147433,
1617.000,0.143001,
1616.000,0.137503,
1615.000,0.13147,
1614.000,0.125516,
1613.000,0.120002,
1612.000,0.115281,
1611.000,0.111922,
1610.000,0.110094,
1609.000,0.109044,
1608.000,0.107881,
1607.000,0.106363,
1606.000,0.104609,
1605.000,0.102537,
1604.000,0.100013,
1603.000,0.0972344,
1602.000,0.0943936,
1601.000,0.0914694,
1600.000,0.0884944,
1599.000,0.0856993,
1598.000,0.0832274,
1597.000,0.0809853,
1596.000,0.0789323,
1595.000,0.077125,
1594.000,0.075393,
1593.000,0.0734273,
1592.000,0.0713932,
1591.000,0.0699606,
1590.000,0.069437,
1589.000,0.0692933,
1588.000,0.0687693,
1587.000,0.0676323,
1586.000,0.0661014,
1585.000,0.0643673,
1584.000,0.0625411,
1583.000,0.0609511,
1582.000,0.0598704,
1581.000,0.0591488,
1580.000,0.0586098,
1579.000,0.0583989,
1578.000,0.0585544,
1577.000,0.0584805,
1576.000,0.0573446,
1575.000,0.0552033,
1574.000,0.0530804,
1573.000,0.0515837,
1572.000,0.0503144,
1571.000,0.0487719,
1570.000,0.0470241,
1569.000,0.0455201,
1568.000,0.0445192,
1567.000,0.0440813,
1566.000,0.0441982,
1565.000,0.0444644,
1564.000,0.0443236,
1563.000,0.0436882,
1562.000,0.0428704,
1561.000,0.0419677,
1560.000,0.0408791,
1559.000,0.039586,
1558.000,0.0391043,
1557.000,0.0389966,
1556.000,0.0387557,
1555.000,0.0389545,
1554.000,0.0387773,
1553.000,0.0378189,
1552.000,0.0365787,
1551.000,0.0357006,
1550.000,0.0353575,
1549.000,0.0352425,
1548.000,0.0349331,
1547.000,0.0343452,
1546.000,0.0337807,
1545.000,0.0334919,
1544.000,0.0334885,
1543.000,0.0335567,
1542.000,0.0333961,
1541.000,0.0329342,
1540.000,0.0325384,
1539.000,0.0324794,
1538.000,0.0323422,
1537.000,0.0321948,
1536.000,0.0322172,
1535.000,0.0320244,
1534.000,0.0316522,
1533.000,0.0312052,
1532.000,0.0305584,
1531.000,0.0296374,
1530.000,0.0286167,
1529.000,0.0277538,
1528.000,0.027079,
1527.000,0.0264679,
1526.000,0.0260136,
1525.000,0.0261067,
1524.000,0.0268002,
1523.000,0.0274693,
1522.000,0.0273967,
1521.000,0.026691,
1520.000,0.0261582,
1519.000,0.0261826,
1518.000,0.0262699,
1517.000,0.0256912,
1516.000,0.0245931,
1515.000,0.0239546,
1514.000,0.0243961,
1513.000,0.0254376,
1512.000,0.025894,
1511.000,0.0251153,
1510.000,0.0237055,
1509.000,0.0227069,
1508.000,0.0225136,
1507.000,0.0226443,
1506.000,0.0225476,
1505.000,0.022244,
1504.000,0.0226048,
1503.000,0.0237746,
1502.000,0.0243952,
1501.000,0.0237333,
1500.000,0.0223253,
1499.000,0.0210013,
1498.000,0.0201571,
1497.000,0.0197901,
1496.000,0.0198833,
1495.000,0.0203639,
1494.000,0.0210167,
1493.000,0.0216497,
1492.000,0.0222143,
1491.000,0.0227124,
1490.000,0.0230355,
1489.000,0.0229896,
1488.000,0.0223531,
1487.000,0.0211337,
1486.000,0.0197824,
1485.000,0.0188705,
1484.000,0.0186763,
1483.000,0.0190965,
1482.000,0.0198093,
1481.000,0.0206792,
1480.000,0.0217542,
1479.000,0.0227315,
1478.000,0.0229328,
1477.000,0.0221198,
1476.000,0.0210545,
1475.000,0.0207273,
1474.000,0.0212289,
1473.000,0.0218388,
1472.000,0.0220549,
1471.000,0.0218336,
1470.000,0.0212605,
1469.000,0.0205256,
1468.000,0.0199818,
1467.000,0.0200399,
1466.000,0.0206419,
1465.000,0.0210473,
1464.000,0.0206504,
1463.000,0.0196871,
1462.000,0.0187882,
1461.000,0.0183012,
1460.000,0.0181847,
1459.000,0.0182696,
1458.000,0.0183694,
1457.000,0.018328,
1456.000,0.0180872,
1455.000,0.0177366,
1454.000,0.0175084,
1453.000,0.0175126,
1452.000,0.0178796,
1451.000,0.0185578,
1450.000,0.0189853,
1449.000,0.0187703,
1448.000,0.0183064,
1447.000,0.0182943,
1446.000,0.0188527,
1445.000,0.0195163,
1444.000,0.0200495,
1443.000,0.0205735,
1442.000,0.020997,
1441.000,0.0210322,
1440.000,0.0207332,
1439.000,0.0204855,
1438.000,0.0204333,
1437.000,0.0202497,
1436.000,0.0196334,
1435.000,0.0189129,
1434.000,0.0185341,
1433.000,0.0183764,
1432.000,0.0181565,
1431.000,0.017975,
1430.000,0.0180499,
1429.000,0.0181447,
1428.000,0.0178492,
1427.000,0.0172199,
1426.000,0.0166228,
1425.000,0.0162303,
1424.000,0.0160914,
1423.000,0.016484,
1422.000,0.0176379,
1421.000,0.0192107,
1420.000,0.0204775,
1419.000,0.020922,
1418.000,0.0206733,
1417.000,0.0202492,
1416.000,0.0199672,
1415.000,0.0197966,
1414.000,0.0195314,
1413.000,0.019093,
1412.000,0.0187327,
1411.000,0.0187438,
1410.000,0.0189426,
1409.000,0.0189171,
1408.000,0.0186959,
1407.000,0.0186264,
1406.000,0.0189949,
1405.000,0.0198512,
1404.000,0.0207737,
1403.000,0.0211175,
1402.000,0.0206365,
1401.000,0.0196341,
1400.000,0.0186027,
1399.000,0.0178538,
1398.000,0.0174115,
1397.000,0.0171958,
1396.000,0.017311,
1395.000,0.0178501,
1394.000,0.0184986,
1393.000,0.0188203,
1392.000,0.0187967,
1391.000,0.018749,
1390.000,0.0188458,
1389.000,0.0188805,
1388.000,0.0185498,
1387.000,0.0178998,
1386.000,0.0173627,
1385.000,0.0173756,
1384.000,0.0181235,
1383.000,0.0194671,
1382.000,0.0209651,
1381.000,0.0220708,
1380.000,0.022403,
1379.000,0.0219663,
1378.000,0.021105,
1377.000,0.0201802,
1376.000,0.0193633,
1375.000,0.0187635,
1374.000,0.0185853,
1373.000,0.0190535,
1372.000,0.0202476,
1371.000,0.0219157,
1370.000,0.0234072,
1369.000,0.0239936,
1368.000,0.0235056,
1367.000,0.0225008,
1366.000,0.0216403,
1365.000,0.0211144,
1364.000,0.0207596,
1363.000,0.0204642,
1362.000,0.0202309,
1361.000,0.0199928,
1360.000,0.0197001,
1359.000,0.019572,
1358.000,0.0199498,
1357.000,0.0208947,
1356.000,0.0220646,
1355.000,0.0229726,
1354.000,0.0234066,
1353.000,0.0235662,
1352.000,0.0237559,
1351.000,0.0239975,
1350.000,0.0239878,
1349.000,0.023399,
1348.000,0.0222657,
1347.000,0.021053,
1346.000,0.02032,
1345.000,0.020319,
1344.000,0.0208834,
1343.000,0.0215854,
1342.000,0.0219479,
1341.000,0.0217215,
1340.000,0.0211559,
1339.000,0.0209144,
1338.000,0.0214871,
1337.000,0.0226687,
1336.000,0.0237575,
1335.000,0.0242308,
1334.000,0.0240679,
1333.000,0.023449,
1332.000,0.0224304,
1331.000,0.0211477,
1330.000,0.0201049,
1329.000,0.0199102,
1328.000,0.0206744,
1327.000,0.0218377,
1326.000,0.0227827,
1325.000,0.0233533,
1324.000,0.0236873,
1323.000,0.0238556,
1322.000,0.0238165,
1321.000,0.023602,
1320.000,0.023317,
1319.000,0.0229647,
1318.000,0.0224767,
1317.000,0.0219107,
1316.000,0.0213779,
1315.000,0.0208278,
1314.000,0.0200911,
1313.000,0.0191445,
1312.000,0.0182758,
1311.000,0.0178565,
1310.000,0.0180259,
1309.000,0.0187107,
1308.000,0.0197636,
1307.000,0.0209311,
1306.000,0.0218264,
1305.000,0.0221438,
1304.000,0.0219811,
1303.000,0.0218039,
1302.000,0.0219559,
1301.000,0.0223885,
1300.000,0.0229435,
1299.000,0.0235782,
1298.000,0.0241932,
1297.000,0.0245317,
1296.000,0.0244107,
1295.000,0.0239803,
1294.000,0.0237458,
1293.000,0.0241431,
1292.000,0.0250579,
1291.000,0.0260301,
1290.000,0.0267717,
1289.000,0.0272404,
1288.000,0.0274164,
1287.000,0.0272789,
1286.000,0.0269409,
1285.000,0.0266283,
1284.000,0.0266173,
1283.000,0.0272032,
1282.000,0.0285163,
1281.000,0.0302704,
1280.000,0.0317893,
1279.000,0.032462,
1278.000,0.0322694,
1277.000,0.0318078,
1276.000,0.031688,
1275.000,0.0320694,
1274.000,0.0328785,
1273.000,0.0340302,
1272.000,0.0353859,
1271.000,0.0366228,
1270.000,0.0371541,
1269.000,0.0366052,
1268.000,0.0352797,
1267.000,0.0339628,
1266.000,0.0334211,
1265.000,0.0339142,
1264.000,0.0349798,
1263.000,0.0358224,
1262.000,0.0361107,
1261.000,0.0363648,
1260.000,0.0373983,
1259.000,0.0394152,
1258.000,0.0418469,
1257.000,0.0440392,
1256.000,0.0457863,
1255.000,0.0471372,
1254.000,0.0480131,
1253.000,0.0484042,
1252.000,0.048737,
1251.000,0.0495559,
1250.000,0.0509232,
1249.000,0.0524612,
1248.000,0.0539396,
1247.000,0.0555462,
1246.000,0.0574969,
1245.000,0.0595092,
1244.000,0.0609734,
1243.000,0.0617213,
1242.000,0.0623063,
1241.000,0.0634737,
1240.000,0.0654689,
1239.000,0.067837,
1238.000,0.0698811,
1237.000,0.071314,
1236.000,0.072456,
1235.000,0.0737759,
1234.000,0.0752549,
1233.000,0.0763114,
1232.000,0.07631,
1231.000,0.0749105,
1230.000,0.0719478,
1229.000,0.0672068,
1228.000,0.0606659,
1227.000,0.0529756,
1226.000,0.0453391,
1225.000,0.0387356,
1224.000,0.0333544,
1223.000,0.0289808,
1222.000,0.0257993,
1221.000,0.0242772,
1220.000,0.0244471,
1219.000,0.0258655,
1218.000,0.0277847,
1217.000,0.0295506,
1216.000,0.0310695,
1215.000,0.0325945,
1214.000,0.0341912,
1213.000,0.0356669,
1212.000,0.0371105,
1211.000,0.0392283,
1210.000,0.0427156,
1209.000,0.0472852,
1208.000,0.0516455,
1207.000,0.0547153,
1206.000,0.0567469,
1205.000,0.0589179,
1204.000,0.0619453,
1203.000,0.0654943,
1202.000,0.0689378,
1201.000,0.0722582,
1200.000,0.0759394,
1199.000,0.0802295,
1198.000,0.0848212,
1197.000,0.089263,
1196.000,0.0934334,
1195.000,0.0974502,
1194.000,0.101295,
1193.000,0.104711,
1192.000,0.107559,
1191.000,0.110313,
1190.000,0.113957,
1189.000,0.119051,
1188.000,0.124917,
1187.000,0.13017,
1186.000,0.134209,
1185.000,0.137787,
1184.000,0.141837,
1183.000,0.14617,
1182.000,0.149902,
1181.000,0.152866,
1180.000,0.155969,
1179.000,0.160112,
1178.000,0.165308,
1177.000,0.171022,
1176.000,0.176872,
1175.000,0.182771,
1174.000,0.188756,
1173.000,0.194936,
1172.000,0.201407,
1171.000,0.208038,
1170.000,0.214407,
1169.000,0.220071,
1168.000,0.224811,
1167.000,0.228643,
1166.000,0.231755,
1165.000,0.234443,
1164.000,0.236948,
1163.000,0.239236,
1162.000,0.241091,
1161.000,0.242415,
1160.000,0.243242,
1159.000,0.243646,
1158.000,0.243836,
1157.000,0.244252,
1156.000,0.245241,
1155.000,0.246579,
1154.000,0.247579,
1153.000,0.247567,
1152.000,0.246047,
1151.000,0.242601,
1150.000,0.237045,
1149.000,0.229824,
1148.000,0.221909,
1147.000,0.21411,
1146.000,0.206608,
1145.000,0.199147,
1144.000,0.191544,
1143.000,0.183823,
1142.000,0.176,
1141.000,0.167905,
1140.000,0.159179,
1139.000,0.149528,
1138.000,0.139094,
1137.000,0.128624,
1136.000,0.119034,
1135.000,0.110721,
1134.000,0.103428,
1133.000,0.0966797,
1132.000,0.0900735,
1131.000,0.0831651,
1130.000,0.0756015,
1129.000,0.0676647,
1128.000,0.0602907,
1127.000,0.054082,
1126.000,0.0486164,
1125.000,0.0430677,
1124.000,0.0371032,
1123.000,0.0309416,
1122.000,0.0251025,
1121.000,0.0203275,
1120.000,0.0174356,
1119.000,0.0169968,
1118.000,0.0189968,
1117.000,0.0235,
1116.000,0.0304967,
1115.000,0.0393087,
1114.000,0.0489056,
1113.000,0.0581321,
1112.000,0.0661737,
1111.000,0.0728986,
1110.000,0.0785901,
1109.000,0.0833645,
1108.000,0.0869951,
1107.000,0.0890943,
1106.000,0.0893907,
1105.000,0.0880101,
1104.000,0.0856237,
1103.000,0.0829549,
1102.000,0.0801401,
1101.000,0.0767759,
1100.000,0.0726252,
1099.000,0.0680464,
1098.000,0.063582,
1097.000,0.0594047,
1096.000,0.0552407,
1095.000,0.0510606,
1094.000,0.0475521,
1093.000,0.0455321,
1092.000,0.0449627,
1091.000,0.0446502,
1090.000,0.0431009,
1089.000,0.0400188,
1088.000,0.0368068,
1087.000,0.035124,
1086.000,0.0350461,
1085.000,0.0351349,
1084.000,0.0342418,
1083.000,0.0324823,
1082.000,0.0304703,
1081.000,0.0285938,
1080.000,0.0269474,
1079.000,0.0257115,
1078.000,0.0251722,
1077.000,0.0254892,
1076.000,0.0262263,
1075.000,0.0264646,
1074.000,0.0257427,
1073.000,0.0244061,
1072.000,0.0232024,
1071.000,0.0225827,
1070.000,0.0222301,
1069.000,0.0215201,
1068.000,0.0203286,
1067.000,0.0190002,
1066.000,0.0177358,
1065.000,0.0164354,
1064.000,0.0153448,
1063.000,0.0154674,
1062.000,0.0174627,
1061.000,0.0201836,
1060.000,0.0216172,
1059.000,0.0206803,
1058.000,0.0179859,
1057.000,0.0152184,
1056.000,0.0138833,
1055.000,0.0143964,
1054.000,0.0158468,
1053.000,0.0166045,
1052.000,0.0155731,
1051.000,0.0132925,
1050.000,0.0115681,
1049.000,0.0110283,
1048.000,0.0104797,
1047.000,0.00963058,
1046.000,0.00928815,
1045.000,0.00966172,
1044.000,0.00986376,
1043.000,0.00916116,
1042.000,0.00819672,
1041.000,0.00812008,
1040.000,0.00897793,
1039.000,0.0104935,
1038.000,0.0123504,
1037.000,0.0138251,
1036.000,0.01456,
1035.000,0.0149215,
1034.000,0.0154038,
1033.000,0.0157937,
1032.000,0.015217,
1031.000,0.0132311,
1030.000,0.0106551,
1029.000,0.00896805,
1028.000,0.00888819,
1027.000,0.00994798,
1026.000,0.011023,
1025.000,0.0111111,
1024.000,0.0101004,
1023.000,0.00869708,
1022.000,0.00763038,
1021.000,0.00713567,
1020.000,0.00694806,
1019.000,0.00661196,
1018.000,0.00599342,
1017.000,0.00543628,
1016.000,0.0052847,
1015.000,0.00544289,
1014.000,0.00534572,
1013.000,0.00487074,
1012.000,0.00483685,
1011.000,0.00557826,
1010.000,0.00640789,
1009.000,0.00657438,
1008.000,0.00584902,
1007.000,0.00508136,
1006.000,0.00527938,
1005.000,0.00582562,
1004.000,0.00591364,
1003.000,0.00651193,
1002.000,0.00837196,
1001.000,0.00922518,
1000.000,0.00717801,
999.000,0.00347733,
998.000,0.00359448,
997.000,0.00612967,
996.000,0.00693386,
995.000,0.0067588,
994.000,0.00701314,
993.000,0.00714854,
992.000,0.00573626,
991.000,0.00327879,
990.000,0.00223823,
989.000,0.00336703,
988.000,0.00496804,
987.000,0.00645408,
986.000,0.00775739,
985.000,0.00886132,
984.000,0.0091993,
983.000,0.00818691,
982.000,0.0061708,
981.000,0.00455912,
980.000,0.00428902,
979.000,0.00441868,
978.000,0.00427064,
977.000,0.00410011,
976.000,0.00419024,
975.000,0.00439435,
974.000,0.00457154,
973.000,0.00461504,
972.000,0.00415728,
971.000,0.00360849,
970.000,0.00420363,
969.000,0.00498987,
968.000,0.00450874,
967.000,0.00302221,
966.000,0.00214838,
965.000,0.00380305,
964.000,0.00616752,
963.000,0.0071215,
962.000,0.00605371,
961.000,0.00392922,
960.000,0.00279488,
959.000,0.00279181,
958.000,0.00269964,
957.000,0.00396105,
956.000,0.00568423,
955.000,0.00662727,
954.000,0.00745013,
953.000,0.00839815,
952.000,0.00837487,
951.000,0.00676435,
950.000,0.00430108,
949.000,0.00229595,
948.000,0.0015418,
947.000,0.00178221,
946.000,0.00231931,
945.000,0.00331379,
944.000,0.00446805,
943.000,0.00472467,
942.000,0.00371843,
941.000,0.0024983,
940.000,0.00291862,
939.000,0.00415975,
938.000,0.00434018,
937.000,0.00285305,
936.000,0.000532918,
935.000,0.00152826,
934.000,0.00259926,
933.000,0.00306199,
932.000,0.00332194,
931.000,0.00308618,
930.000,0.00180349,
929.000,0.00171291,
928.000,0.00459874,
927.000,0.00676324,
926.000,0.00758356,
925.000,0.007954,
924.000,0.00796479,
923.000,0.00687133,
922.000,0.00480872,
921.000,0.00254067,
920.000,0.000723942,
919.000,0.00204107,
918.000,0.00435551,
917.000,0.00545362,
916.000,0.00435303,
915.000,0.00236899,
914.000,0.00322852,
913.000,0.00436333,
912.000,0.00393776,
911.000,0.00284149,
910.000,0.00234246,
909.000,0.0026667,
908.000,0.00332646,
907.000,0.00482965,
906.000,0.00689133,
905.000,0.00875433,
904.000,0.0103251,
903.000,0.0112034,
902.000,0.0102475,
901.000,0.00712025,
900.000,0.00396716,
899.000,0.00351076,
898.000,0.00459569,
897.000,0.00517287,
896.000,0.00445573,
895.000,0.00303643,
894.000,0.00178139,
893.000,0.00160692,
892.000,0.00166528,
891.000,0.00140857,
890.000,0.00261623,
889.000,0.00477251,
888.000,0.00678733,
887.000,0.00745172,
886.000,0.0060591,
885.000,0.00437767,
884.000,0.00421182,
883.000,0.00408208,
882.000,0.00390947,
881.000,0.00419752,
880.000,0.00470654,
879.000,0.00486712,
878.000,0.00423279,
877.000,0.00215888,
876.000,0.00152433,
875.000,0.00570325,
874.000,0.00790785,
873.000,0.00563217,
872.000,0.00238713,
871.000,0.00658572,
870.000,0.010097,
869.000,0.0103807,
868.000,0.00876665,
867.000,0.0062064,
866.000,0.00428867,
865.000,0.00507261,
864.000,0.00721368,
863.000,0.00807553,
862.000,0.00746447,
861.000,0.00700014,
860.000,0.00777689,
859.000,0.00805934,
858.000,0.00713565,
857.000,0.00588088,
856.000,0.00464492,
855.000,0.0042219,
854.000,0.00462408,
853.000,0.00467979,
852.000,0.00525543,
851.000,0.00634083,
850.000,0.00513905,
849.000,0.00249566,
848.000,0.00374947,
847.000,0.00544863,
846.000,0.0049695,
845.000,0.00513189,
844.000,0.00688641,
843.000,0.00729582,
842.000,0.00516473,
841.000,0.00316251,
840.000,0.00370638,
839.000,0.00443403,
838.000,0.00455551,
837.000,0.00445386,
836.000,0.0045818,
835.000,0.00548722,
834.000,0.0072394,
833.000,0.00891077,
832.000,0.00907329,
831.000,0.00767132,
830.000,0.00630913,
829.000,0.00660809,
828.000,0.00839933,
827.000,0.00997001,
826.000,0.00983043,
825.000,0.00828412,
824.000,0.00682181,
823.000,0.00603297,
822.000,0.00523936,
821.000,0.003699,
820.000,0.0020479,
819.000,0.00201202,
818.000,0.00309179,
817.000,0.0039671,
816.000,0.00426724,
815.000,0.0043218,
814.000,0.00448198,
813.000,0.00456353,
812.000,0.00422265,
811.000,0.00412178,
810.000,0.00457215,
809.000,0.00456839,
808.000,0.00442616,
807.000,0.0043152,
806.000,0.00391453,
805.000,0.00408001,
804.000,0.00492084,
803.000,0.00553025,
802.000,0.00518152,
801.000,0.00451751,
800.000,0.00408533,
799.000,0.00362955,
798.000,0.00245431,
797.000,0.00083916,
796.000,0.0019402,
795.000,0.00445001,
794.000,0.00685966,
793.000,0.00776927,
792.000,0.00634237,
791.000,0.00470969,
790.000,0.00499989,
789.000,0.00589469,
788.000,0.00625409,
787.000,0.00626583,
786.000,0.00619061,
785.000,0.00643505,
784.000,0.00661652,
783.000,0.00650238,
782.000,0.00600463,
781.000,0.00483859,
780.000,0.00280374,
779.000,0.00132132,
778.000,0.00302879,
777.000,0.00588657,
776.000,0.00818164,
775.000,0.0085909,
774.000,0.00683319,
773.000,0.00369073,
772.000,0.00134921,
771.000,0.00249936,
770.000,0.00312613,
769.000,0.00225725,
768.000,0.00187615,
767.000,0.00204982,
766.000,0.00181846,
765.000,0.00141696,
764.000,0.00176628,
763.000,0.00246578,
762.000,0.00198724,
761.000,0.00066547,
760.000,0.00189274,
759.000,0.00267695,
758.000,0.00222623,
757.000,0.00470693,
756.000,0.00845767,
755.000,0.00991291,
754.000,0.00872093,
753.000,0.00680907,
752.000,0.00625145,
751.000,0.00739521,
750.000,0.00892344,
749.000,0.00969142,
748.000,0.00992113,
747.000,0.00983929,
746.000,0.0086172,
745.000,0.00634524,
744.000,0.00517785,
743.000,0.0056335,
742.000,0.00552199,
741.000,0.00487776,
740.000,0.00540656,
739.000,0.00677814,
738.000,0.00752763,
737.000,0.00764735,
736.000,0.00761804,
735.000,0.00754996,
734.000,0.00610685,
733.000,0.00441603,
732.000,0.00641072,
731.000,0.00818895,
730.000,0.00680781,
729.000,0.0036437,
728.000,0.00136908,
727.000,0.0020842,
726.000,0.00287021,
725.000,0.00304852,
724.000,0.00313337,
723.000,0.00321227,
722.000,0.00368016,
721.000,0.00445425,
720.000,0.00516402,
719.000,0.00540724,
718.000,0.00506125,
717.000,0.00429348,
716.000,0.0034791,
715.000,0.00306899,
714.000,0.00429753,
713.000,0.00674058,
712.000,0.00840788,
711.000,0.00969592,
710.000,0.0102108,
709.000,0.00819849,
708.000,0.00444866,
707.000,0.00204605,
706.000,0.00335424,
705.000,0.00610588,
704.000,0.00773396,
703.000,0.00829666,
702.000,0.0082376,
701.000,0.00789183,
700.000,0.00766499,
699.000,0.00749212,
698.000,0.00736613,
697.000,0.00710583,
696.000,0.00638843,
695.000,0.00403586,
694.000,0.00256086,
693.000,0.00456174,
692.000,0.00540402,
691.000,0.00398227,
690.000,0.00174184,
689.000,0.00207345,
688.000,0.00535857,
687.000,0.00680577,
686.000,0.00580613,
685.000,0.00419616,
684.000,0.00334025,
683.000,0.00280651,
682.000,0.00276136,
681.000,0.00434659,
680.000,0.00602284,
679.000,0.00619206,
678.000,0.00543456,
677.000,0.00538584,
676.000,0.00685046,
675.000,0.00797589,
674.000,0.00746644,
673.000,0.00500197,
672.000,0.00311547,
671.000,0.00367509,
670.000,0.00405948,
669.000,0.00233264,
668.000,0.00109918,
667.000,0.00442134,
666.000,0.00767071,
665.000,0.0081622,
664.000,0.00760769,
663.000,0.00763185,
662.000,0.00775909,
661.000,0.00577683,
660.000,0.00442472,
659.000,0.00556527,
658.000,0.00628506,
657.000,0.00575988,
656.000,0.00517759,
655.000,0.00439267,
654.000,0.00443738,
653.000,0.00555269,
652.000,0.00583585,
651.000,0.0060791,
650.000,0.00783779,
649.000,0.00930024,
648.000,0.00899211,
647.000,0.00739836,
646.000,0.00595953,
645.000,0.00580131,
644.000,0.00565593,
643.000,0.00406647,
642.000,0.00219975,
641.000,0.00209021,
640.000,0.00404015,
639.000,0.0061222,
638.000,0.00683551,
637.000,0.00638551,
636.000,0.00577867,
635.000,0.00771664,
634.000,0.0108873,
633.000,0.0126509,
632.000,0.0117929,
631.000,0.00981893,
630.000,0.0052498,
629.000,0.000770924,
628.000,0.00353223,
627.000,0.00619148,
626.000,0.00572195,
625.000,0.00505653,
624.000,0.00353999,
623.000,0.00158454,
622.000,0.00444183,
621.000,0.00927918,
620.000,0.0112622,
619.000,0.0120176,
618.000,0.0129178,
617.000,0.0150607,
616.000,0.0171691,
615.000,0.0174935,
614.000,0.0157965,
613.000,0.014275,
612.000,0.0142264,
611.000,0.0144553,
610.000,0.0134958,
609.000,0.0113513,
608.000,0.00924634,
607.000,0.00851581,
606.000,0.00985493,
605.000,0.0126118,
604.000,0.0148714,
603.000,0.0159463,
602.000,0.0164087,
601.000,0.0158999,
600.000,0.0140171,
599.000,0.0123998,
598.000,0.0122184,
597.000,0.0132488,
596.000,0.0158036,
595.000,0.018659,
594.000,0.019948,
593.000,0.0195529,
592.000,0.0183315,
591.000,0.0170881,
590.000,0.015708,
589.000,0.0137956,
588.000,0.010799,
587.000,0.00756474,
586.000,0.00739577,
585.000,0.0103891,
584.000,0.0114385,
583.000,0.0100235,
582.000,0.00516166,
581.000,0.00249656,
580.000,0.00366114,
579.000,0.00131104,
578.000,0.00375276,
577.000,0.00912295,
576.000,0.0113941,
575.000,0.0123369,
574.000,0.0103572,
573.000,0.00943626,
572.000,0.0120875,
571.000,0.0130756,
570.000,0.0125458,
569.000,0.0131605,
568.000,0.00957869,
567.000,0.00561956,
566.000,0.00749507,
565.000,0.00497206,
564.000,0.00403727,
563.000,0.0121917,
562.000,0.016913,
561.000,0.0170216,
560.000,0.0156713,
559.000,0.014292,
558.000,0.0144053,
557.000,0.0155068,
556.000,0.016627,
555.000,0.0159513,
554.000,0.0121985,
553.000,0.00790507,
552.000,0.00637128,
551.000,0.00691885,
550.000,0.00858744,
549.000,0.00986827,
548.000,0.00716416,
547.000,0.00250133,
546.000,0.00476767,
545.000,0.00683124,
544.000,0.00411662,
543.000,0.00767478,
542.000,0.0153416,
541.000,0.01982,
540.000,0.0202671,
539.000,0.0177125,
538.000,0.0140726,
537.000,0.0101019,
536.000,0.00704371,
535.000,0.00534483,
534.000,0.00732707,
533.000,0.0159962,
532.000,0.0249385,
531.000,0.02708,
530.000,0.0218549,
529.000,0.0150264,
528.000,0.0119029,
527.000,0.0105729,
526.000,0.00760052,
525.000,0.00510781,
524.000,0.00597497,
523.000,0.0074901,
522.000,0.00444991,
521.000,0.00234136,
520.000,0.00848829,
519.000,0.0115847,
518.000,0.00951338,
517.000,0.0154722,
516.000,0.0235948,
515.000,0.0272341,
514.000,0.0168538,
513.000,0.00452956,
512.000,0.0132447,
511.000,0.0181951,
510.000,0.019873,
509.000,0.0261649,
508.000,0.0287284,
507.000,0.0273146,
506.000,0.0199988,
505.000,0.0204186,
504.000,0.0304669,
503.000,0.0337209,
502.000,0.0271562,
501.000,0.0229522,
500.000,0.0274657,
499.000,0.0351846,
498.000,0.0409526,
497.000,0.041183,
496.000,0.0340329,
495.000,0.0242667,
494.000,0.0197362,
493.000,0.0236654,
492.000,0.0294786,
491.000,0.0313589,
490.000,0.0323351,
489.000,0.0361218,
488.000,0.0386042,
487.000,0.0383123,
486.000,0.0337836,
485.000,0.0270605,
484.000,0.0178651,
483.000,0.00890928,
482.000,0.0174159,
481.000,0.0339095,
480.000,0.0373509,
479.000,0.0245553,
478.000,0.0214253,
477.000,0.0368988,
476.000,0.0438986,
475.000,0.0357795,
474.000,0.019259,
473.000,0.0164581,
472.000,0.027722,
471.000,0.0311778,
470.000,0.0331331,
469.000,0.0421281,
468.000,0.0548779,
467.000,0.0667419,
466.000,0.0745652,
465.000,0.0751842,
464.000,0.0621941,
463.000,0.0408804,
462.000,0.040476,
461.000,0.0623673,
460.000,0.0779406,
459.000,0.0805002,
458.000,0.0747937,
457.000,0.0639318,
456.000,0.0519352,
455.000,0.0457395,
454.000,0.0438907,
453.000,0.0384754,
452.000,0.0344502,
451.000,0.0364947,
450.000,0.0375804,
449.000,0.031923,
448.000,0.0337568,
447.000,0.0500672,
446.000,0.0576174,
445.000,0.0458862,
444.000,0.0251446,
443.000,0.0174662,
442.000,0.0273475,
441.000,0.03317,
440.000,0.0330245,
439.000,0.0330556,
438.000,0.0314282,
437.000,0.0303643,
436.000,0.034452,
435.000,0.043795,
434.000,0.0604024,
433.000,0.0799918,
432.000,0.0994584,
431.000,0.103199,
430.000,0.0882295,
429.000,0.0482724,
428.000,0.0107012,
427.000,0.0176957,
426.000,0.0148813,
425.000,0.0189725,
424.000,0.0423118,
423.000,0.0455544,
422.000,0.0464781,
421.000,0.0638684,
420.000,0.0973019,
419.000,0.130727,
418.000,0.146957,
417.000,0.138794,
416.000,0.115691,
415.000,0.096428,
414.000,0.0939703,
413.000,0.0881702,
412.000,0.0562678,
411.000,0.0619808,
410.000,0.107086,
409.000,0.128381,
408.000,0.0908316,
407.000,0.0406854,
406.000,0.0800331,
405.000,0.121622,
404.000,0.110691,
403.000,0.098966,
402.000,0.0928404,
401.000,0.0886131,
400.000,0.0945168,
