,d2o 040 By Administrator Date Tuesday. December 14 2021,
Time,11:27:22,
Wavenumbers [1/cm],Transmittance %,
7000.000,4.93515,
6999.000,4.92082,
6998.000,4.90894,
6997.000,4.89671,
6996.000,4.8818,
6995.000,4.86372,
6994.000,4.84348,
6993.000,4.82242,
6992.000,4.80161,
6991.000,4.78183,
6990.000,4.76323,
6989.000,4.74508,
6988.000,4.72644,
6987.000,4.70735,
6986.000,4.68923,
6985.000,4.67385,
6984.000,4.66162,
6983.000,4.65111,
6982.000,4.64026,
6981.000,4.62853,
6980.000,4.61769,
6979.000,4.60981,
6978.000,4.60383,
6977.000,4.59537,
6976.000,4.58121,
6975.000,4.56327,
6974.000,4.54694,
6973.000,4.53551,
6972.000,4.52709,
6971.000,4.51699,
6970.000,4.50247,
6969.000,4.48488,
6968.000,4.46775,
6967.000,4.45318,
6966.000,4.44015,
6965.000,4.42644,
6964.000,4.41231,
6963.000,4.4009,
6962.000,4.39376,
6961.000,4.38734,
6960.000,4.37665,
6959.000,4.36178,
6958.000,4.34762,
6957.000,4.33708,
6956.000,4.32726,
6955.000,4.31453,
6954.000,4.30095,
6953.000,4.29205,
6952.000,4.28916,
6951.000,4.2872,
6950.000,4.28078,
6949.000,4.27045,
6948.000,4.26176,
6947.000,4.25839,
6946.000,4.25697,
6945.000,4.24983,
6944.000,4.23335,
6943.000,4.21286,
6942.000,4.19771,
6941.000,4.19131,
6940.000,4.18818,
6939.000,4.18167,
6938.000,4.17232,
6937.000,4.16521,
6936.000,4.16147,
6935.000,4.15678,
6934.000,4.14794,
6933.000,4.13703,
6932.000,4.1279,
6931.000,4.12141,
6930.000,4.11591,
6929.000,4.11021,
6928.000,4.10384,
6927.000,4.09623,
6926.000,4.0879,
6925.000,4.08157,
6924.000,4.07989,
6923.000,4.08223,
6922.000,4.08511,
6921.000,4.08602,
6920.000,4.0857,
6919.000,4.08661,
6918.000,4.09012,
6917.000,4.09488,
6916.000,4.09753,
6915.000,4.09551,
6914.000,4.08961,
6913.000,4.08288,
6912.000,4.07666,
6911.000,4.06903,
6910.000,4.05842,
6909.000,4.04758,
6908.000,4.04193,
6907.000,4.04399,
6906.000,4.05104,
6905.000,4.05874,
6904.000,4.06503,
6903.000,4.06978,
6902.000,4.07287,
6901.000,4.07434,
6900.000,4.07521,
6899.000,4.07688,
6898.000,4.07981,
6897.000,4.08398,
6896.000,4.09034,
6895.000,4.09998,
6894.000,4.11193,
6893.000,4.12301,
6892.000,4.13044,
6891.000,4.13381,
6890.000,4.13435,
6889.000,4.13365,
6888.000,4.13368,
6887.000,4.1371,
6886.000,4.1454,
6885.000,4.15699,
6884.000,4.16848,
6883.000,4.17784,
6882.000,4.18597,
6881.000,4.19478,
6880.000,4.20485,
6879.000,4.21529,
6878.000,4.22536,
6877.000,4.23567,
6876.000,4.24849,
6875.000,4.26648,
6874.000,4.28986,
6873.000,4.31445,
6872.000,4.33395,
6871.000,4.34593,
6870.000,4.35426,
6869.000,4.36419,
6868.000,4.37623,
6867.000,4.38744,
6866.000,4.39798,
6865.000,4.41259,
6864.000,4.43453,
6863.000,4.46038,
6862.000,4.48345,
6861.000,4.50143,
6860.000,4.51761,
6859.000,4.53474,
6858.000,4.55091,
6857.000,4.56286,
6856.000,4.57105,
6855.000,4.57962,
6854.000,4.59162,
6853.000,4.60623,
6852.000,4.62132,
6851.000,4.6371,
6850.000,4.65586,
6849.000,4.67873,
6848.000,4.70416,
6847.000,4.72984,
6846.000,4.75471,
6845.000,4.77889,
6844.000,4.80266,
6843.000,4.82666,
6842.000,4.85219,
6841.000,4.88021,
6840.000,4.91009,
6839.000,4.94081,
6838.000,4.97269,
6837.000,5.00654,
6836.000,5.04119,
6835.000,5.07351,
6834.000,5.10126,
6833.000,5.12481,
6832.000,5.14604,
6831.000,5.16722,
6830.000,5.19161,
6829.000,5.22229,
6828.000,5.25878,
6827.000,5.29634,
6826.000,5.33069,
6825.000,5.36218,
6824.000,5.39383,
6823.000,5.42664,
6822.000,5.45944,
6821.000,5.4925,
6820.000,5.528,
6819.000,5.56696,
6818.000,5.60823,
6817.000,5.651,
6816.000,5.69536,
6815.000,5.74034,
6814.000,5.78379,
6813.000,5.82548,
6812.000,5.86793,
6811.000,5.91262,
6810.000,5.95724,
6809.000,5.99832,
6808.000,6.03566,
6807.000,6.07236,
6806.000,6.11168,
6805.000,6.15466,
6804.000,6.19986,
6803.000,6.24463,
6802.000,6.28785,
6801.000,6.33193,
6800.000,6.38051,
6799.000,6.43329,
6798.000,6.48508,
6797.000,6.5318,
6796.000,6.5753,
6795.000,6.62022,
6794.000,6.66785,
6793.000,6.71584,
6792.000,6.76291,
6791.000,6.81136,
6790.000,6.86394,
6789.000,6.92009,
6788.000,6.97623,
6787.000,7.02949,
6786.000,7.0806,
6785.000,7.13298,
6784.000,7.18919,
6783.000,7.24894,
6782.000,7.31122,
6781.000,7.37652,
6780.000,7.44443,
6779.000,7.50991,
6778.000,7.56581,
6777.000,7.61055,
6776.000,7.65049,
6775.000,7.69309,
6774.000,7.74044,
6773.000,7.79175,
6772.000,7.84834,
6771.000,7.91231,
6770.000,7.98229,
6769.000,8.05406,
6768.000,8.12455,
6767.000,8.19307,
6766.000,8.25989,
6765.000,8.32602,
6764.000,8.39297,
6763.000,8.45966,
6762.000,8.52173,
6761.000,8.57741,
6760.000,8.6324,
6759.000,8.69421,
6758.000,8.76295,
6757.000,8.83263,
6756.000,8.90087,
6755.000,8.97175,
6754.000,9.04821,
6753.000,9.12647,
6752.000,9.20082,
6751.000,9.27015,
6750.000,9.33687,
6749.000,9.40221,
6748.000,9.46567,
6747.000,9.52703,
6746.000,9.58669,
6745.000,9.64589,
6744.000,9.70848,
6743.000,9.7797,
6742.000,9.8603,
6741.000,9.94348,
6740.000,10.021,
6739.000,10.0916,
6738.000,10.1596,
6737.000,10.2273,
6736.000,10.2916,
6735.000,10.3514,
6734.000,10.412,
6733.000,10.4795,
6732.000,10.5534,
6731.000,10.6268,
6730.000,10.6959,
6729.000,10.7635,
6728.000,10.8342,
6727.000,10.9087,
6726.000,10.9835,
6725.000,11.0561,
6724.000,11.1259,
6723.000,11.1931,
6722.000,11.2572,
6721.000,11.3184,
6720.000,11.3779,
6719.000,11.4371,
6718.000,11.4974,
6717.000,11.5605,
6716.000,11.6258,
6715.000,11.6899,
6714.000,11.75,
6713.000,11.8068,
6712.000,11.8628,
6711.000,11.9186,
6710.000,11.9732,
6709.000,12.0269,
6708.000,12.0807,
6707.000,12.1332,
6706.000,12.1809,
6705.000,12.2235,
6704.000,12.2638,
6703.000,12.3045,
6702.000,12.3452,
6701.000,12.3869,
6700.000,12.4326,
6699.000,12.4814,
6698.000,12.5291,
6697.000,12.5717,
6696.000,12.6084,
6695.000,12.639,
6694.000,12.6629,
6693.000,12.6818,
6692.000,12.7011,
6691.000,12.7245,
6690.000,12.7495,
6689.000,12.7706,
6688.000,12.7861,
6687.000,12.7974,
6686.000,12.8058,
6685.000,12.8117,
6684.000,12.817,
6683.000,12.8241,
6682.000,12.8337,
6681.000,12.8448,
6680.000,12.8559,
6679.000,12.8636,
6678.000,12.8636,
6677.000,12.8555,
6676.000,12.8437,
6675.000,12.833,
6674.000,12.8227,
6673.000,12.8087,
6672.000,12.7905,
6671.000,12.7721,
6670.000,12.7555,
6669.000,12.7381,
6668.000,12.7167,
6667.000,12.6927,
6666.000,12.6707,
6665.000,12.6522,
6664.000,12.6341,
6663.000,12.6129,
6662.000,12.588,
6661.000,12.5617,
6660.000,12.5348,
6659.000,12.5062,
6658.000,12.4746,
6657.000,12.4405,
6656.000,12.4045,
6655.000,12.3668,
6654.000,12.3279,
6653.000,12.2894,
6652.000,12.2522,
6651.000,12.2147,
6650.000,12.1757,
6649.000,12.1361,
6648.000,12.0972,
6647.000,12.0577,
6646.000,12.0149,
6645.000,11.9683,
6644.000,11.9203,
6643.000,11.8745,
6642.000,11.8333,
6641.000,11.7961,
6640.000,11.7592,
6639.000,11.7179,
6638.000,11.6718,
6637.000,11.6245,
6636.000,11.5787,
6635.000,11.5317,
6634.000,11.4812,
6633.000,11.4299,
6632.000,11.3816,
6631.000,11.3358,
6630.000,11.2891,
6629.000,11.2414,
6628.000,11.1955,
6627.000,11.1522,
6626.000,11.1089,
6625.000,11.0635,
6624.000,11.0164,
6623.000,10.9678,
6622.000,10.9179,
6621.000,10.8684,
6620.000,10.8206,
6619.000,10.7722,
6618.000,10.7209,
6617.000,10.6687,
6616.000,10.619,
6615.000,10.5703,
6614.000,10.518,
6613.000,10.4626,
6612.000,10.4098,
6611.000,10.3611,
6610.000,10.312,
6609.000,10.2599,
6608.000,10.2092,
6607.000,10.1645,
6606.000,10.1244,
6605.000,10.0848,
6604.000,10.0449,
6603.000,10.0058,
6602.000,9.96525,
6601.000,9.91786,
6600.000,9.86255,
6599.000,9.80502,
6598.000,9.75295,
6597.000,9.70915,
6596.000,9.66979,
6595.000,9.62903,
6594.000,9.58499,
6593.000,9.54061,
6592.000,9.49822,
6591.000,9.45552,
6590.000,9.40917,
6589.000,9.36084,
6588.000,9.31585,
6587.000,9.27575,
6586.000,9.2361,
6585.000,9.19193,
6584.000,9.14298,
6583.000,9.09263,
6582.000,9.04453,
6581.000,9.00065,
6580.000,8.9602,
6579.000,8.91975,
6578.000,8.8765,
6577.000,8.8316,
6576.000,8.78808,
6575.000,8.74602,
6574.000,8.7025,
6573.000,8.65648,
6572.000,8.61026,
6571.000,8.56557,
6570.000,8.52152,
6569.000,8.4773,
6568.000,8.43411,
6567.000,8.39322,
6566.000,8.35453,
6565.000,8.31798,
6564.000,8.28392,
6563.000,8.25096,
6562.000,8.21616,
6561.000,8.17874,
6560.000,8.14114,
6559.000,8.105,
6558.000,8.06839,
6557.000,8.02873,
6556.000,7.98656,
6555.000,7.94451,
6554.000,7.90372,
6553.000,7.86299,
6552.000,7.8209,
6551.000,7.77792,
6550.000,7.7365,
6549.000,7.69925,
6548.000,7.66632,
6547.000,7.63501,
6546.000,7.60295,
6545.000,7.57063,
6544.000,7.53912,
6543.000,7.50654,
6542.000,7.46951,
6541.000,7.42797,
6540.000,7.38584,
6539.000,7.34649,
6538.000,7.31004,
6537.000,7.27504,
6536.000,7.24038,
6535.000,7.20521,
6534.000,7.16939,
6533.000,7.13445,
6532.000,7.10187,
6531.000,7.07056,
6530.000,7.03833,
6529.000,7.00571,
6528.000,6.97493,
6527.000,6.94514,
6526.000,6.91218,
6525.000,6.87459,
6524.000,6.83635,
6523.000,6.80175,
6522.000,6.77001,
6521.000,6.73744,
6520.000,6.70274,
6519.000,6.66799,
6518.000,6.63519,
6517.000,6.60378,
6516.000,6.57143,
6515.000,6.53665,
6514.000,6.50089,
6513.000,6.46774,
6512.000,6.43897,
6511.000,6.41179,
6510.000,6.38207,
6509.000,6.34963,
6508.000,6.318,
6507.000,6.28916,
6506.000,6.26135,
6505.000,6.23265,
6504.000,6.20358,
6503.000,6.17532,
6502.000,6.14772,
6501.000,6.12025,
6500.000,6.09261,
6499.000,6.06332,
6498.000,6.03026,
6497.000,5.99407,
6496.000,5.9584,
6495.000,5.92521,
6494.000,5.89209,
6493.000,5.8563,
6492.000,5.8193,
6491.000,5.78493,
6490.000,5.75437,
6489.000,5.72559,
6488.000,5.69681,
6487.000,5.66842,
6486.000,5.64137,
6485.000,5.61562,
6484.000,5.59071,
6483.000,5.56693,
6482.000,5.54513,
6481.000,5.52532,
6480.000,5.50555,
6479.000,5.48249,
6478.000,5.4538,
6477.000,5.42004,
6476.000,5.38397,
6475.000,5.34868,
6474.000,5.31691,
6473.000,5.29088,
6472.000,5.27041,
6471.000,5.25184,
6470.000,5.23058,
6469.000,5.2052,
6468.000,5.17759,
6467.000,5.1495,
6466.000,5.12161,
6465.000,5.09572,
6464.000,5.07434,
6463.000,5.05669,
6462.000,5.03785,
6461.000,5.01379,
6460.000,4.98547,
6459.000,4.95622,
6458.000,4.92717,
6457.000,4.8975,
6456.000,4.86767,
6455.000,4.83963,
6454.000,4.81411,
6453.000,4.78993,
6452.000,4.76616,
6451.000,4.74325,
6450.000,4.72132,
6449.000,4.69902,
6448.000,4.67457,
6447.000,4.64766,
6446.000,4.61947,
6445.000,4.59143,
6444.000,4.56443,
6443.000,4.53938,
6442.000,4.5176,
6441.000,4.49962,
6440.000,4.48349,
6439.000,4.46567,
6438.000,4.44447,
6437.000,4.42178,
6436.000,4.40002,
6435.000,4.3784,
6434.000,4.35422,
6433.000,4.32772,
6432.000,4.30299,
6431.000,4.28318,
6430.000,4.26695,
6429.000,4.25105,
6428.000,4.23465,
6427.000,4.21886,
6426.000,4.20263,
6425.000,4.18212,
6424.000,4.15546,
6423.000,4.1264,
6422.000,4.10133,
6421.000,4.08283,
6420.000,4.06746,
6419.000,4.05064,
6418.000,4.03194,
6417.000,4.01404,
6416.000,3.99751,
6415.000,3.97946,
6414.000,3.95793,
6413.000,3.93512,
6412.000,3.91455,
6411.000,3.89655,
6410.000,3.87883,
6409.000,3.86046,
6408.000,3.84305,
6407.000,3.82809,
6406.000,3.81508,
6405.000,3.80257,
6404.000,3.78922,
6403.000,3.7738,
6402.000,3.75571,
6401.000,3.73608,
6400.000,3.71695,
6399.000,3.69902,
6398.000,3.68147,
6397.000,3.66401,
6396.000,3.64776,
6395.000,3.63349,
6394.000,3.62009,
6393.000,3.60558,
6392.000,3.5888,
6391.000,3.57036,
6390.000,3.55275,
6389.000,3.5392,
6388.000,3.53078,
6387.000,3.52441,
6386.000,3.51514,
6385.000,3.50103,
6384.000,3.48448,
6383.000,3.4686,
6382.000,3.45403,
6381.000,3.44014,
6380.000,3.42724,
6379.000,3.41608,
6378.000,3.40576,
6377.000,3.39405,
6376.000,3.37985,
6375.000,3.36435,
6374.000,3.34974,
6373.000,3.33742,
6372.000,3.32734,
6371.000,3.3185,
6370.000,3.3097,
6369.000,3.30024,
6368.000,3.29018,
6367.000,3.28001,
6366.000,3.26999,
6365.000,3.25977,
6364.000,3.24863,
6363.000,3.23612,
6362.000,3.22277,
6361.000,3.20976,
6360.000,3.19773,
6359.000,3.18624,
6358.000,3.17476,
6357.000,3.16382,
6356.000,3.15446,
6355.000,3.14686,
6354.000,3.14041,
6353.000,3.13461,
6352.000,3.12896,
6351.000,3.12243,
6350.000,3.11392,
6349.000,3.10346,
6348.000,3.09201,
6347.000,3.08048,
6346.000,3.06966,
6345.000,3.06082,
6344.000,3.05482,
6343.000,3.05075,
6342.000,3.04661,
6341.000,3.04154,
6340.000,3.03602,
6339.000,3.0299,
6338.000,3.022,
6337.000,3.01222,
6336.000,3.00263,
6335.000,2.9953,
6334.000,2.99015,
6333.000,2.98576,
6332.000,2.9814,
6331.000,2.97715,
6330.000,2.97306,
6329.000,2.96939,
6328.000,2.96704,
6327.000,2.96641,
6326.000,2.96609,
6325.000,2.96398,
6324.000,2.95973,
6323.000,2.95478,
6322.000,2.94978,
6321.000,2.94358,
6320.000,2.93572,
6319.000,2.92894,
6318.000,2.92727,
6317.000,2.93096,
6316.000,2.93511,
6315.000,2.93457,
6314.000,2.9293,
6313.000,2.92326,
6312.000,2.91868,
6311.000,2.91421,
6310.000,2.9092,
6309.000,2.9068,
6308.000,2.91039,
6307.000,2.91833,
6306.000,2.92514,
6305.000,2.92755,
6304.000,2.92719,
6303.000,2.92723,
6302.000,2.92862,
6301.000,2.93054,
6300.000,2.93267,
6299.000,2.93565,
6298.000,2.94012,
6297.000,2.94597,
6296.000,2.95206,
6295.000,2.95649,
6294.000,2.95801,
6293.000,2.95762,
6292.000,2.95759,
6291.000,2.95882,
6290.000,2.96045,
6289.000,2.96248,
6288.000,2.96678,
6287.000,2.97447,
6286.000,2.98406,
6285.000,2.99348,
6284.000,3.00277,
6283.000,3.01309,
6282.000,3.02403,
6281.000,3.03419,
6280.000,3.04361,
6279.000,3.05368,
6278.000,3.06455,
6277.000,3.07477,
6276.000,3.08392,
6275.000,3.09387,
6274.000,3.10644,
6273.000,3.12116,
6272.000,3.13601,
6271.000,3.14971,
6270.000,3.16225,
6269.000,3.17387,
6268.000,3.18451,
6267.000,3.19407,
6266.000,3.20283,
6265.000,3.21197,
6264.000,3.22381,
6263.000,3.24042,
6262.000,3.2611,
6261.000,3.28188,
6260.000,3.29887,
6259.000,3.31204,
6258.000,3.32462,
6257.000,3.33883,
6256.000,3.35402,
6255.000,3.36941,
6254.000,3.38676,
6253.000,3.40864,
6252.000,3.43456,
6251.000,3.46095,
6250.000,3.48489,
6249.000,3.50638,
6248.000,3.52691,
6247.000,3.54731,
6246.000,3.56782,
6245.000,3.5887,
6244.000,3.60977,
6243.000,3.63028,
6242.000,3.65069,
6241.000,3.67339,
6240.000,3.70021,
6239.000,3.72951,
6238.000,3.75775,
6237.000,3.78368,
6236.000,3.80903,
6235.000,3.83513,
6234.000,3.86069,
6233.000,3.88433,
6232.000,3.90752,
6231.000,3.93332,
6230.000,3.96267,
6229.000,3.99347,
6228.000,4.02326,
6227.000,4.05176,
6226.000,4.08036,
6225.000,4.11021,
6224.000,4.14136,
6223.000,4.1735,
6222.000,4.20655,
6221.000,4.24018,
6220.000,4.27343,
6219.000,4.30582,
6218.000,4.33877,
6217.000,4.37486,
6216.000,4.41507,
6215.000,4.45736,
6214.000,4.49845,
6213.000,4.53634,
6212.000,4.57093,
6211.000,4.60322,
6210.000,4.63485,
6209.000,4.66783,
6208.000,4.70342,
6207.000,4.74134,
6206.000,4.78063,
6205.000,4.82062,
6204.000,4.86063,
6203.000,4.90003,
6202.000,4.93962,
6201.000,4.98194,
6200.000,5.02826,
6199.000,5.07623,
6198.000,5.12243,
6197.000,5.16651,
6196.000,5.21102,
6195.000,5.25751,
6194.000,5.30509,
6193.000,5.35264,
6192.000,5.40025,
6191.000,5.44806,
6190.000,5.49546,
6189.000,5.54227,
6188.000,5.58908,
6187.000,5.63623,
6186.000,5.68384,
6185.000,5.73273,
6184.000,5.78338,
6183.000,5.83403,
6182.000,5.88219,
6181.000,5.92816,
6180.000,5.97482,
6179.000,6.02361,
6178.000,6.07351,
6177.000,6.12446,
6176.000,6.17866,
6175.000,6.23693,
6174.000,6.29658,
6173.000,6.35456,
6172.000,6.41087,
6171.000,6.46709,
6170.000,6.52333,
6169.000,6.57887,
6168.000,6.63399,
6167.000,6.68931,
6166.000,6.74433,
6165.000,6.79845,
6164.000,6.85257,
6163.000,6.90826,
6162.000,6.96616,
6161.000,7.0265,
6160.000,7.08971,
6159.000,7.15522,
6158.000,7.22065,
6157.000,7.28382,
6156.000,7.34484,
6155.000,7.40499,
6154.000,7.46472,
6153.000,7.52378,
6152.000,7.58228,
6151.000,7.64061,
6150.000,7.6992,
6149.000,7.75953,
6148.000,7.82395,
6147.000,7.89331,
6146.000,7.96553,
6145.000,8.03777,
6144.000,8.10888,
6143.000,8.17877,
6142.000,8.24648,
6141.000,8.31087,
6140.000,8.37272,
6139.000,8.43469,
6138.000,8.49914,
6137.000,8.56649,
6136.000,8.63537,
6135.000,8.70408,
6134.000,8.7722,
6133.000,8.84078,
6132.000,8.91033,
6131.000,8.97915,
6130.000,9.04514,
6129.000,9.10889,
6128.000,9.17319,
6127.000,9.23946,
6126.000,9.30643,
6125.000,9.3728,
6124.000,9.43885,
6123.000,9.50505,
6122.000,9.571,
6121.000,9.63645,
6120.000,9.70168,
6119.000,9.76644,
6118.000,9.8304,
6117.000,9.89482,
6116.000,9.96148,
6115.000,10.0296,
6114.000,10.0964,
6113.000,10.1608,
6112.000,10.2242,
6111.000,10.287,
6110.000,10.347,
6109.000,10.403,
6108.000,10.4574,
6107.000,10.5128,
6106.000,10.569,
6105.000,10.624,
6104.000,10.6776,
6103.000,10.7308,
6102.000,10.7844,
6101.000,10.8378,
6100.000,10.8894,
6099.000,10.9371,
6098.000,10.98,
6097.000,11.0198,
6096.000,11.0594,
6095.000,11.0991,
6094.000,11.1381,
6093.000,11.1771,
6092.000,11.2178,
6091.000,11.2583,
6090.000,11.2939,
6089.000,11.3223,
6088.000,11.3458,
6087.000,11.3679,
6086.000,11.3892,
6085.000,11.41,
6084.000,11.4316,
6083.000,11.4542,
6082.000,11.4754,
6081.000,11.4925,
6080.000,11.5049,
6079.000,11.5131,
6078.000,11.5169,
6077.000,11.5177,
6076.000,11.518,
6075.000,11.5196,
6074.000,11.5215,
6073.000,11.5221,
6072.000,11.52,
6071.000,11.514,
6070.000,11.5033,
6069.000,11.489,
6068.000,11.4734,
6067.000,11.4577,
6066.000,11.4419,
6065.000,11.4273,
6064.000,11.4148,
6063.000,11.4015,
6062.000,11.3834,
6061.000,11.3604,
6060.000,11.3363,
6059.000,11.3123,
6058.000,11.2854,
6057.000,11.2539,
6056.000,11.22,
6055.000,11.1853,
6054.000,11.1481,
6053.000,11.1076,
6052.000,11.0672,
6051.000,11.0302,
6050.000,10.9959,
6049.000,10.961,
6048.000,10.924,
6047.000,10.8851,
6046.000,10.8444,
6045.000,10.8016,
6044.000,10.7576,
6043.000,10.7133,
6042.000,10.6687,
6041.000,10.6239,
6040.000,10.5796,
6039.000,10.5361,
6038.000,10.4922,
6037.000,10.4467,
6036.000,10.3995,
6035.000,10.3509,
6034.000,10.3015,
6033.000,10.2527,
6032.000,10.2064,
6031.000,10.1624,
6030.000,10.1191,
6029.000,10.0754,
6028.000,10.0306,
6027.000,9.98332,
6026.000,9.93246,
6025.000,9.87992,
6024.000,9.82914,
6023.000,9.78082,
6022.000,9.733,
6021.000,9.68493,
6020.000,9.63804,
6019.000,9.59217,
6018.000,9.54474,
6017.000,9.49465,
6016.000,9.44388,
6015.000,9.39389,
6014.000,9.34353,
6013.000,9.2919,
6012.000,9.24061,
6011.000,9.19103,
6010.000,9.14222,
6009.000,9.09318,
6008.000,9.04488,
6007.000,8.99809,
6006.000,8.95142,
6005.000,8.90363,
6004.000,8.85603,
6003.000,8.81043,
6002.000,8.7664,
6001.000,8.72231,
6000.000,8.67788,
5999.000,8.63366,
5998.000,8.58918,
5997.000,8.54347,
5996.000,8.49666,
5995.000,8.44999,
5994.000,8.40458,
5993.000,8.36093,
5992.000,8.31861,
5991.000,8.27581,
5990.000,8.23028,
5989.000,8.18168,
5988.000,8.13194,
5987.000,8.08294,
5986.000,8.03513,
5985.000,7.98857,
5984.000,7.94372,
5983.000,7.9003,
5982.000,7.857,
5981.000,7.8131,
5980.000,7.76932,
5979.000,7.72642,
5978.000,7.68425,
5977.000,7.64274,
5976.000,7.6022,
5975.000,7.56174,
5974.000,7.51934,
5973.000,7.47447,
5972.000,7.42944,
5971.000,7.38673,
5970.000,7.34644,
5969.000,7.30721,
5968.000,7.26827,
5967.000,7.22924,
5966.000,7.18914,
5965.000,7.1475,
5964.000,7.10585,
5963.000,7.06664,
5962.000,7.03065,
5961.000,6.99641,
5960.000,6.96207,
5959.000,6.92657,
5958.000,6.88923,
5957.000,6.84948,
5956.000,6.80752,
5955.000,6.76472,
5954.000,6.72279,
5953.000,6.68252,
5952.000,6.64348,
5951.000,6.60505,
5950.000,6.56715,
5949.000,6.52994,
5948.000,6.49292,
5947.000,6.45531,
5946.000,6.41733,
5945.000,6.38021,
5944.000,6.34466,
5943.000,6.3103,
5942.000,6.27691,
5941.000,6.24473,
5940.000,6.21289,
5939.000,6.17884,
5938.000,6.14118,
5937.000,6.10176,
5936.000,6.06374,
5935.000,6.02818,
5934.000,5.99418,
5933.000,5.96119,
5932.000,5.92928,
5931.000,5.89749,
5930.000,5.86437,
5929.000,5.83024,
5928.000,5.79706,
5927.000,5.76568,
5926.000,5.73485,
5925.000,5.70309,
5924.000,5.67023,
5923.000,5.63686,
5922.000,5.6036,
5921.000,5.57134,
5920.000,5.5408,
5919.000,5.51147,
5918.000,5.48205,
5917.000,5.45207,
5916.000,5.42213,
5915.000,5.39237,
5914.000,5.3621,
5913.000,5.33089,
5912.000,5.29886,
5911.000,5.26586,
5910.000,5.2318,
5909.000,5.19826,
5908.000,5.16809,
5907.000,5.14235,
5906.000,5.1186,
5905.000,5.0928,
5904.000,5.06254,
5903.000,5.02819,
5902.000,4.99194,
5901.000,4.95652,
5900.000,4.92419,
5899.000,4.89582,
5898.000,4.87045,
5897.000,4.8458,
5896.000,4.81958,
5895.000,4.79086,
5894.000,4.76074,
5893.000,4.73121,
5892.000,4.70301,
5891.000,4.67508,
5890.000,4.64615,
5889.000,4.61644,
5888.000,4.58702,
5887.000,4.55843,
5886.000,4.53086,
5885.000,4.50492,
5884.000,4.48076,
5883.000,4.45688,
5882.000,4.4309,
5881.000,4.40198,
5880.000,4.3717,
5879.000,4.34239,
5878.000,4.31507,
5877.000,4.28901,
5876.000,4.26275,
5875.000,4.23553,
5874.000,4.20795,
5873.000,4.18108,
5872.000,4.15498,
5871.000,4.12883,
5870.000,4.10271,
5869.000,4.07798,
5868.000,4.05507,
5867.000,4.03219,
5866.000,4.00726,
5865.000,3.98041,
5864.000,3.95351,
5863.000,3.9281,
5862.000,3.90475,
5861.000,3.88378,
5860.000,3.86497,
5859.000,3.84712,
5858.000,3.82867,
5857.000,3.80853,
5856.000,3.78572,
5855.000,3.75928,
5854.000,3.72977,
5853.000,3.69984,
5852.000,3.67187,
5851.000,3.64612,
5850.000,3.62232,
5849.000,3.60182,
5848.000,3.58574,
5847.000,3.57189,
5846.000,3.556,
5845.000,3.5359,
5844.000,3.51276,
5843.000,3.48857,
5842.000,3.46462,
5841.000,3.44245,
5840.000,3.42347,
5839.000,3.40691,
5838.000,3.39006,
5837.000,3.37162,
5836.000,3.35306,
5835.000,3.33575,
5834.000,3.31855,
5833.000,3.2997,
5832.000,3.27958,
5831.000,3.25999,
5830.000,3.24168,
5829.000,3.22409,
5828.000,3.20682,
5827.000,3.18991,
5826.000,3.17264,
5825.000,3.15356,
5824.000,3.13244,
5823.000,3.11121,
5822.000,3.09228,
5821.000,3.076,
5820.000,3.06028,
5819.000,3.04306,
5818.000,3.02426,
5817.000,3.00535,
5816.000,2.98738,
5815.000,2.9705,
5814.000,2.95518,
5813.000,2.94208,
5812.000,2.93052,
5811.000,2.91805,
5810.000,2.90302,
5809.000,2.88637,
5808.000,2.87003,
5807.000,2.85435,
5806.000,2.83844,
5805.000,2.8224,
5804.000,2.80764,
5803.000,2.7947,
5802.000,2.78225,
5801.000,2.76854,
5800.000,2.75289,
5799.000,2.73595,
5798.000,2.71908,
5797.000,2.70371,
5796.000,2.69016,
5795.000,2.67721,
5794.000,2.66361,
5793.000,2.64971,
5792.000,2.63665,
5791.000,2.6242,
5790.000,2.61079,
5789.000,2.59587,
5788.000,2.58084,
5787.000,2.56713,
5786.000,2.55439,
5785.000,2.54129,
5784.000,2.52733,
5783.000,2.51314,
5782.000,2.49915,
5781.000,2.48513,
5780.000,2.47105,
5779.000,2.45806,
5778.000,2.44783,
5777.000,2.44047,
5776.000,2.43353,
5775.000,2.42388,
5774.000,2.41062,
5773.000,2.39548,
5772.000,2.3803,
5771.000,2.36511,
5770.000,2.34933,
5769.000,2.33373,
5768.000,2.31975,
5767.000,2.30759,
5766.000,2.29624,
5765.000,2.28529,
5764.000,2.27512,
5763.000,2.26547,
5762.000,2.25511,
5761.000,2.2433,
5760.000,2.23079,
5759.000,2.21908,
5758.000,2.20925,
5757.000,2.20136,
5756.000,2.19424,
5755.000,2.1861,
5754.000,2.17605,
5753.000,2.16505,
5752.000,2.15455,
5751.000,2.14455,
5750.000,2.13398,
5749.000,2.12266,
5748.000,2.11173,
5747.000,2.10198,
5746.000,2.09295,
5745.000,2.08392,
5744.000,2.07511,
5743.000,2.06726,
5742.000,2.06067,
5741.000,2.05507,
5740.000,2.04999,
5739.000,2.04527,
5738.000,2.04104,
5737.000,2.03704,
5736.000,2.03187,
5735.000,2.02384,
5734.000,2.01335,
5733.000,2.00335,
5732.000,1.99635,
5731.000,1.99155,
5730.000,1.98619,
5729.000,1.97935,
5728.000,1.97272,
5727.000,1.96796,
5726.000,1.96502,
5725.000,1.96313,
5724.000,1.96178,
5723.000,1.95995,
5722.000,1.95616,
5721.000,1.95014,
5720.000,1.94377,
5719.000,1.93945,
5718.000,1.93801,
5717.000,1.93822,
5716.000,1.9378,
5715.000,1.93474,
5714.000,1.92886,
5713.000,1.92247,
5712.000,1.91867,
5711.000,1.91867,
5710.000,1.92111,
5709.000,1.92406,
5708.000,1.92647,
5707.000,1.92768,
5706.000,1.92693,
5705.000,1.92421,
5704.000,1.921,
5703.000,1.91896,
5702.000,1.91865,
5701.000,1.91959,
5700.000,1.92133,
5699.000,1.92389,
5698.000,1.92736,
5697.000,1.93142,
5696.000,1.93504,
5695.000,1.93713,
5694.000,1.93784,
5693.000,1.93872,
5692.000,1.94122,
5691.000,1.94523,
5690.000,1.95004,
5689.000,1.95584,
5688.000,1.96293,
5687.000,1.96994,
5686.000,1.97474,
5685.000,1.97725,
5684.000,1.97975,
5683.000,1.98383,
5682.000,1.98881,
5681.000,1.99359,
5680.000,1.99842,
5679.000,2.00396,
5678.000,2.0101,
5677.000,2.01659,
5676.000,2.02395,
5675.000,2.03242,
5674.000,2.04101,
5673.000,2.04834,
5672.000,2.05392,
5671.000,2.05809,
5670.000,2.06156,
5669.000,2.06551,
5668.000,2.07129,
5667.000,2.07906,
5666.000,2.08767,
5665.000,2.0963,
5664.000,2.1054,
5663.000,2.11554,
5662.000,2.12654,
5661.000,2.13812,
5660.000,2.15037,
5659.000,2.16284,
5658.000,2.17435,
5657.000,2.18425,
5656.000,2.19307,
5655.000,2.20152,
5654.000,2.21018,
5653.000,2.22044,
5652.000,2.2341,
5651.000,2.25093,
5650.000,2.2683,
5649.000,2.28425,
5648.000,2.2993,
5647.000,2.31422,
5646.000,2.32802,
5645.000,2.33994,
5644.000,2.35172,
5643.000,2.3654,
5642.000,2.3803,
5641.000,2.39446,
5640.000,2.40828,
5639.000,2.42404,
5638.000,2.44219,
5637.000,2.46068,
5636.000,2.47812,
5635.000,2.49518,
5634.000,2.51264,
5633.000,2.53014,
5632.000,2.54758,
5631.000,2.56592,
5630.000,2.5859,
5629.000,2.60713,
5628.000,2.62889,
5627.000,2.65074,
5626.000,2.67206,
5625.000,2.69227,
5624.000,2.71198,
5623.000,2.73281,
5622.000,2.7555,
5621.000,2.77933,
5620.000,2.80349,
5619.000,2.82794,
5618.000,2.85256,
5617.000,2.87679,
5616.000,2.90072,
5615.000,2.92545,
5614.000,2.95176,
5613.000,2.97896,
5612.000,3.00595,
5611.000,3.03263,
5610.000,3.0598,
5609.000,3.08806,
5608.000,3.11711,
5607.000,3.14584,
5606.000,3.17298,
5605.000,3.19835,
5604.000,3.22355,
5603.000,3.25091,
5602.000,3.28149,
5601.000,3.31444,
5600.000,3.34822,
5599.000,3.38172,
5598.000,3.41429,
5597.000,3.44594,
5596.000,3.47767,
5595.000,3.51086,
5594.000,3.54563,
5593.000,3.58046,
5592.000,3.61407,
5591.000,3.6471,
5590.000,3.68151,
5589.000,3.71847,
5588.000,3.75727,
5587.000,3.79624,
5586.000,3.83409,
5585.000,3.87066,
5584.000,3.90673,
5583.000,3.94342,
5582.000,3.98155,
5581.000,4.02141,
5580.000,4.06281,
5579.000,4.10529,
5578.000,4.14833,
5577.000,4.19158,
5576.000,4.23503,
5575.000,4.27894,
5574.000,4.32357,
5573.000,4.36883,
5572.000,4.41406,
5571.000,4.45869,
5570.000,4.50319,
5569.000,4.54894,
5568.000,4.59668,
5567.000,4.6456,
5566.000,4.69458,
5565.000,4.74377,
5564.000,4.79379,
5563.000,4.84395,
5562.000,4.89272,
5561.000,4.9401,
5560.000,4.98777,
5559.000,5.03675,
5558.000,5.08622,
5557.000,5.13567,
5556.000,5.18646,
5555.000,5.24005,
5554.000,5.29575,
5553.000,5.35142,
5552.000,5.40605,
5551.000,5.46045,
5550.000,5.51608,
5549.000,5.57417,
5548.000,5.63533,
5547.000,5.69897,
5546.000,5.76306,
5545.000,5.82536,
5544.000,5.88499,
5543.000,5.94245,
5542.000,5.99871,
5541.000,6.05501,
5540.000,6.11267,
5539.000,6.17241,
5538.000,6.23388,
5537.000,6.29641,
5536.000,6.35971,
5535.000,6.42341,
5534.000,6.48657,
5533.000,6.54853,
5532.000,6.60992,
5531.000,6.67192,
5530.000,6.73487,
5529.000,6.79808,
5528.000,6.86104,
5527.000,6.92427,
5526.000,6.98905,
5525.000,7.05635,
5524.000,7.12565,
5523.000,7.19481,
5522.000,7.26147,
5521.000,7.32507,
5520.000,7.3871,
5519.000,7.44975,
5518.000,7.5147,
5517.000,7.58266,
5516.000,7.65285,
5515.000,7.7229,
5514.000,7.79067,
5513.000,7.85651,
5512.000,7.92271,
5511.000,7.99049,
5510.000,8.05873,
5509.000,8.12579,
5508.000,8.19097,
5507.000,8.25396,
5506.000,8.31456,
5505.000,8.37368,
5504.000,8.43314,
5503.000,8.4937,
5502.000,8.55429,
5501.000,8.61382,
5500.000,8.67235,
5499.000,8.73002,
5498.000,8.78634,
5497.000,8.84134,
5496.000,8.89612,
5495.000,8.95122,
5494.000,9.00588,
5493.000,9.05954,
5492.000,9.11256,
5491.000,9.16468,
5490.000,9.21399,
5489.000,9.2588,
5488.000,9.29925,
5487.000,9.33634,
5486.000,9.37078,
5485.000,9.40349,
5484.000,9.43606,
5483.000,9.4693,
5482.000,9.50213,
5481.000,9.53278,
5480.000,9.56052,
5479.000,9.58556,
5478.000,9.60837,
5477.000,9.62962,
5476.000,9.64988,
5475.000,9.66862,
5474.000,9.6845,
5473.000,9.69742,
5472.000,9.70874,
5471.000,9.71893,
5470.000,9.72664,
5469.000,9.73078,
5468.000,9.73204,
5467.000,9.73128,
5466.000,9.72812,
5465.000,9.72247,
5464.000,9.71559,
5463.000,9.70822,
5462.000,9.6989,
5461.000,9.68582,
5460.000,9.66941,
5459.000,9.65153,
5458.000,9.63274,
5457.000,9.61198,
5456.000,9.58848,
5455.000,9.56258,
5454.000,9.53512,
5453.000,9.50668,
5452.000,9.47745,
5451.000,9.44705,
5450.000,9.4149,
5449.000,9.38124,
5448.000,9.3472,
5447.000,9.3137,
5446.000,9.28088,
5445.000,9.24875,
5444.000,9.21712,
5443.000,9.18461,
5442.000,9.14909,
5441.000,9.10955,
5440.000,9.06703,
5439.000,9.02324,
5438.000,8.97921,
5437.000,8.93556,
5436.000,8.89285,
5435.000,8.85094,
5434.000,8.80906,
5433.000,8.76695,
5432.000,8.72495,
5431.000,8.6829,
5430.000,8.63993,
5429.000,8.59556,
5428.000,8.55036,
5427.000,8.50495,
5426.000,8.45908,
5425.000,8.41218,
5424.000,8.3642,
5423.000,8.31573,
5422.000,8.26758,
5421.000,8.22004,
5420.000,8.17262,
5419.000,8.12472,
5418.000,8.07667,
5417.000,8.02993,
5416.000,7.98562,
5415.000,7.94352,
5414.000,7.903,
5413.000,7.86406,
5412.000,7.82604,
5411.000,7.78624,
5410.000,7.74164,
5409.000,7.69215,
5408.000,7.64087,
5407.000,7.591,
5406.000,7.5437,
5405.000,7.4986,
5404.000,7.45483,
5403.000,7.41106,
5402.000,7.36599,
5401.000,7.31978,
5400.000,7.27408,
5399.000,7.23025,
5398.000,7.18825,
5397.000,7.14724,
5396.000,7.10645,
5395.000,7.06511,
5394.000,7.02262,
5393.000,6.97907,
5392.000,6.93529,
5391.000,6.89194,
5390.000,6.84881,
5389.000,6.80516,
5388.000,6.76083,
5387.000,6.71655,
5386.000,6.67336,
5385.000,6.63183,
5384.000,6.59173,
5383.000,6.55224,
5382.000,6.51312,
5381.000,6.47487,
5380.000,6.43773,
5379.000,6.40105,
5378.000,6.36393,
5377.000,6.32614,
5376.000,6.2878,
5375.000,6.24856,
5374.000,6.20803,
5373.000,6.16661,
5372.000,6.12508,
5371.000,6.08401,
5370.000,6.04407,
5369.000,6.00608,
5368.000,5.97024,
5367.000,5.93571,
5366.000,5.90152,
5365.000,5.86735,
5364.000,5.83288,
5363.000,5.79727,
5362.000,5.76041,
5361.000,5.72366,
5360.000,5.68842,
5359.000,5.65435,
5358.000,5.62023,
5357.000,5.58586,
5356.000,5.55178,
5355.000,5.51773,
5354.000,5.48288,
5353.000,5.44748,
5352.000,5.4128,
5351.000,5.37916,
5350.000,5.34534,
5349.000,5.31055,
5348.000,5.27579,
5347.000,5.24283,
5346.000,5.21215,
5345.000,5.18267,
5344.000,5.15303,
5343.000,5.12243,
5342.000,5.09088,
5341.000,5.05868,
5340.000,5.02592,
5339.000,4.99242,
5338.000,4.95839,
5337.000,4.9247,
5336.000,4.89209,
5335.000,4.86046,
5334.000,4.82921,
5333.000,4.7979,
5332.000,4.76614,
5331.000,4.73331,
5330.000,4.69927,
5329.000,4.66528,
5328.000,4.63343,
5327.000,4.60482,
5326.000,4.57856,
5325.000,4.55238,
5324.000,4.52405,
5323.000,4.49263,
5322.000,4.45889,
5321.000,4.4247,
5320.000,4.39188,
5319.000,4.36119,
5318.000,4.33229,
5317.000,4.30415,
5316.000,4.27543,
5315.000,4.24538,
5314.000,4.21479,
5313.000,4.18575,
5312.000,4.15965,
5311.000,4.13567,
5310.000,4.11141,
5309.000,4.08497,
5308.000,4.05597,
5307.000,4.02519,
5306.000,3.99403,
5305.000,3.96416,
5304.000,3.93654,
5303.000,3.91053,
5302.000,3.88456,
5301.000,3.85764,
5300.000,3.83006,
5299.000,3.80259,
5298.000,3.7757,
5297.000,3.7495,
5296.000,3.72376,
5295.000,3.69772,
5294.000,3.67063,
5293.000,3.64262,
5292.000,3.61496,
5291.000,3.58886,
5290.000,3.56451,
5289.000,3.54127,
5288.000,3.51847,
5287.000,3.49572,
5286.000,3.47261,
5285.000,3.44872,
5284.000,3.42392,
5283.000,3.39857,
5282.000,3.37317,
5281.000,3.34808,
5280.000,3.32338,
5279.000,3.2991,
5278.000,3.27535,
5277.000,3.25212,
5276.000,3.2289,
5275.000,3.20501,
5274.000,3.18042,
5273.000,3.15579,
5272.000,3.13172,
5271.000,3.10793,
5270.000,3.08387,
5269.000,3.05976,
5268.000,3.03668,
5267.000,3.01546,
5266.000,2.99572,
5265.000,2.97615,
5264.000,2.95579,
5263.000,2.93491,
5262.000,2.91465,
5261.000,2.8956,
5260.000,2.87693,
5259.000,2.85723,
5258.000,2.83606,
5257.000,2.81425,
5256.000,2.79291,
5255.000,2.77265,
5254.000,2.75372,
5253.000,2.73595,
5252.000,2.71819,
5251.000,2.69862,
5250.000,2.6768,
5249.000,2.65499,
5248.000,2.63629,
5247.000,2.62141,
5246.000,2.60789,
5245.000,2.59266,
5244.000,2.57462,
5243.000,2.55457,
5242.000,2.53371,
5241.000,2.51305,
5240.000,2.49335,
5239.000,2.47478,
5238.000,2.4566,
5237.000,2.4381,
5236.000,2.41964,
5235.000,2.40252,
5234.000,2.38737,
5233.000,2.37326,
5232.000,2.35842,
5231.000,2.34176,
5230.000,2.3236,
5229.000,2.30513,
5228.000,2.28754,
5227.000,2.27154,
5226.000,2.25735,
5225.000,2.24468,
5224.000,2.23276,
5223.000,2.22066,
5222.000,2.20758,
5221.000,2.19299,
5220.000,2.17648,
5219.000,2.15818,
5218.000,2.1393,
5217.000,2.12163,
5216.000,2.10629,
5215.000,2.09294,
5214.000,2.08032,
5213.000,2.06733,
5212.000,2.05328,
5211.000,2.03797,
5210.000,2.02199,
5209.000,2.00658,
5208.000,1.99245,
5207.000,1.97885,
5206.000,1.96432,
5205.000,1.94868,
5204.000,1.93337,
5203.000,1.91974,
5202.000,1.90762,
5201.000,1.89602,
5200.000,1.8843,
5199.000,1.87217,
5198.000,1.85926,
5197.000,1.84542,
5196.000,1.83135,
5195.000,1.81801,
5194.000,1.80553,
5193.000,1.79323,
5192.000,1.7808,
5191.000,1.76852,
5190.000,1.7563,
5189.000,1.74345,
5188.000,1.72972,
5187.000,1.71595,
5186.000,1.70337,
5185.000,1.69231,
5184.000,1.68225,
5183.000,1.67257,
5182.000,1.66277,
5181.000,1.65228,
5180.000,1.6408,
5179.000,1.62872,
5178.000,1.61696,
5177.000,1.60602,
5176.000,1.5958,
5175.000,1.58604,
5174.000,1.5767,
5173.000,1.56762,
5172.000,1.55839,
5171.000,1.54865,
5170.000,1.53859,
5169.000,1.52884,
5168.000,1.51996,
5167.000,1.51191,
5166.000,1.50402,
5165.000,1.49548,
5164.000,1.48589,
5163.000,1.47544,
5162.000,1.46453,
5161.000,1.45366,
5160.000,1.44365,
5159.000,1.43537,
5158.000,1.42896,
5157.000,1.42345,
5156.000,1.41765,
5155.000,1.41127,
5154.000,1.4047,
5153.000,1.39812,
5152.000,1.39142,
5151.000,1.38469,
5150.000,1.37801,
5149.000,1.37084,
5148.000,1.36241,
5147.000,1.35303,
5146.000,1.34425,
5145.000,1.33739,
5144.000,1.33242,
5143.000,1.32855,
5142.000,1.3252,
5141.000,1.322,
5140.000,1.31846,
5139.000,1.31415,
5138.000,1.3091,
5137.000,1.30357,
5136.000,1.29757,
5135.000,1.29107,
5134.000,1.28455,
5133.000,1.2788,
5132.000,1.27423,
5131.000,1.27053,
5130.000,1.26697,
5129.000,1.26299,
5128.000,1.25856,
5127.000,1.2543,
5126.000,1.25108,
5125.000,1.24938,
5124.000,1.24897,
5123.000,1.24916,
5122.000,1.24918,
5121.000,1.24864,
5120.000,1.24768,
5119.000,1.24676,
5118.000,1.24602,
5117.000,1.24487,
5116.000,1.24248,
5115.000,1.23869,
5114.000,1.23433,
5113.000,1.23045,
5112.000,1.2277,
5111.000,1.22613,
5110.000,1.22527,
5109.000,1.22453,
5108.000,1.22371,
5107.000,1.22337,
5106.000,1.2241,
5105.000,1.22557,
5104.000,1.22691,
5103.000,1.22795,
5102.000,1.22934,
5101.000,1.23141,
5100.000,1.23352,
5099.000,1.23485,
5098.000,1.23534,
5097.000,1.23553,
5096.000,1.2359,
5095.000,1.23665,
5094.000,1.2378,
5093.000,1.23915,
5092.000,1.24061,
5091.000,1.2426,
5090.000,1.24581,
5089.000,1.25,
5088.000,1.25371,
5087.000,1.25548,
5086.000,1.25528,
5085.000,1.2545,
5084.000,1.25493,
5083.000,1.25775,
5082.000,1.26298,
5081.000,1.2695,
5080.000,1.27576,
5079.000,1.28096,
5078.000,1.28524,
5077.000,1.28884,
5076.000,1.29162,
5075.000,1.29356,
5074.000,1.29527,
5073.000,1.2975,
5072.000,1.30054,
5071.000,1.30455,
5070.000,1.30995,
5069.000,1.31689,
5068.000,1.3246,
5067.000,1.33178,
5066.000,1.33749,
5065.000,1.34158,
5064.000,1.34474,
5063.000,1.34842,
5062.000,1.35408,
5061.000,1.36199,
5060.000,1.37081,
5059.000,1.3789,
5058.000,1.38591,
5057.000,1.39254,
5056.000,1.39943,
5055.000,1.40671,
5054.000,1.41437,
5053.000,1.42246,
5052.000,1.43094,
5051.000,1.43985,
5050.000,1.44958,
5049.000,1.46021,
5048.000,1.471,
5047.000,1.4809,
5046.000,1.48963,
5045.000,1.49781,
5044.000,1.50602,
5043.000,1.51442,
5042.000,1.52309,
5041.000,1.53222,
5040.000,1.54187,
5039.000,1.55187,
5038.000,1.56214,
5037.000,1.57274,
5036.000,1.58361,
5035.000,1.59477,
5034.000,1.60656,
5033.000,1.61944,
5032.000,1.63331,
5031.000,1.64748,
5030.000,1.66124,
5029.000,1.67439,
5028.000,1.68728,
5027.000,1.70059,
5026.000,1.71497,
5025.000,1.7304,
5024.000,1.746,
5023.000,1.76096,
5022.000,1.77558,
5021.000,1.79109,
5020.000,1.8083,
5019.000,1.8268,
5018.000,1.84541,
5017.000,1.86314,
5016.000,1.87987,
5015.000,1.8964,
5014.000,1.91409,
5013.000,1.93367,
5012.000,1.95442,
5011.000,1.97473,
5010.000,1.9937,
5009.000,2.01188,
5008.000,2.0305,
5007.000,2.05032,
5006.000,2.07131,
5005.000,2.09294,
5004.000,2.11454,
5003.000,2.13573,
5002.000,2.15697,
5001.000,2.17929,
5000.000,2.20339,
4999.000,2.22878,
4998.000,2.25435,
4997.000,2.27928,
4996.000,2.30355,
4995.000,2.32791,
4994.000,2.35339,
4993.000,2.38058,
4992.000,2.40891,
4991.000,2.43698,
4990.000,2.4637,
4989.000,2.48927,
4988.000,2.51495,
4987.000,2.54214,
4986.000,2.57151,
4985.000,2.60264,
4984.000,2.63409,
4983.000,2.66443,
4982.000,2.69342,
4981.000,2.72226,
4980.000,2.75256,
4979.000,2.78513,
4978.000,2.81973,
4977.000,2.85551,
4976.000,2.89147,
4975.000,2.92691,
4974.000,2.96191,
4973.000,2.99714,
4972.000,3.03304,
4971.000,3.06922,
4970.000,3.10508,
4969.000,3.14071,
4968.000,3.17684,
4967.000,3.21418,
4966.000,3.25305,
4965.000,3.29337,
4964.000,3.33454,
4963.000,3.37541,
4962.000,3.41514,
4961.000,3.45415,
4960.000,3.49387,
4959.000,3.5356,
4958.000,3.57956,
4957.000,3.62494,
4956.000,3.6704,
4955.000,3.71479,
4954.000,3.75795,
4953.000,3.80095,
4952.000,3.84531,
4951.000,3.89173,
4950.000,3.93982,
4949.000,3.98873,
4948.000,4.03771,
4947.000,4.08633,
4946.000,4.13449,
4945.000,4.18256,
4944.000,4.23119,
4943.000,4.2808,
4942.000,4.33135,
4941.000,4.38266,
4940.000,4.43456,
4939.000,4.48707,
4938.000,4.54052,
4937.000,4.59531,
4936.000,4.6514,
4935.000,4.70796,
4934.000,4.76401,
4933.000,4.81925,
4932.000,4.87413,
4931.000,4.92921,
4930.000,4.98506,
4929.000,5.04224,
4928.000,5.10096,
4927.000,5.16061,
4926.000,5.22016,
4925.000,5.27916,
4924.000,5.33798,
4923.000,5.39723,
4922.000,5.4573,
4921.000,5.51841,
4920.000,5.58038,
4919.000,5.64251,
4918.000,5.70405,
4917.000,5.76492,
4916.000,5.82579,
4915.000,5.88733,
4914.000,5.9499,
4913.000,6.01375,
4912.000,6.07885,
4911.000,6.14455,
4910.000,6.20987,
4909.000,6.27435,
4908.000,6.33821,
4907.000,6.40187,
4906.000,6.4655,
4905.000,6.52909,
4904.000,6.59248,
4903.000,6.65549,
4902.000,6.71828,
4901.000,6.78157,
4900.000,6.84571,
4899.000,6.90993,
4898.000,6.97284,
4897.000,7.03373,
4896.000,7.09284,
4895.000,7.15071,
4894.000,7.20791,
4893.000,7.26516,
4892.000,7.32284,
4891.000,7.38033,
4890.000,7.43639,
4889.000,7.49027,
4888.000,7.54197,
4887.000,7.59163,
4886.000,7.63948,
4885.000,7.68607,
4884.000,7.7317,
4883.000,7.77569,
4882.000,7.81678,
4881.000,7.85429,
4880.000,7.88842,
4879.000,7.91987,
4878.000,7.94981,
4877.000,7.97977,
4876.000,8.01051,
4875.000,8.04082,
4874.000,8.06853,
4873.000,8.0925,
4872.000,8.1131,
4871.000,8.13094,
4870.000,8.14616,
4869.000,8.15881,
4868.000,8.16896,
4867.000,8.17626,
4866.000,8.18035,
4865.000,8.18187,
4864.000,8.1819,
4863.000,8.18057,
4862.000,8.17702,
4861.000,8.17086,
4860.000,8.16258,
4859.000,8.15253,
4858.000,8.14043,
4857.000,8.12626,
4856.000,8.11056,
4855.000,8.09356,
4854.000,8.07481,
4853.000,8.05405,
4852.000,8.03161,
4851.000,8.00753,
4850.000,7.9811,
4849.000,7.95179,
4848.000,7.92019,
4847.000,7.88755,
4846.000,7.85482,
4845.000,7.82238,
4844.000,7.78996,
4843.000,7.75674,
4842.000,7.72173,
4841.000,7.68464,
4840.000,7.64617,
4839.000,7.60712,
4838.000,7.56762,
4837.000,7.5273,
4836.000,7.486,
4835.000,7.44396,
4834.000,7.40166,
4833.000,7.35943,
4832.000,7.31735,
4831.000,7.27529,
4830.000,7.23317,
4829.000,7.19095,
4828.000,7.14841,
4827.000,7.10503,
4826.000,7.06046,
4825.000,7.01497,
4824.000,6.96938,
4823.000,6.92457,
4822.000,6.88123,
4821.000,6.83953,
4820.000,6.79896,
4819.000,6.75852,
4818.000,6.71754,
4817.000,6.6759,
4816.000,6.6335,
4815.000,6.58994,
4814.000,6.54518,
4813.000,6.49994,
4812.000,6.45524,
4811.000,6.41144,
4810.000,6.36821,
4809.000,6.32493,
4808.000,6.28118,
4807.000,6.2371,
4806.000,6.19347,
4805.000,6.15115,
4804.000,6.1099,
4803.000,6.06836,
4802.000,6.02542,
4801.000,5.98147,
4800.000,5.9379,
4799.000,5.8958,
4798.000,5.85537,
4797.000,5.81596,
4796.000,5.77637,
4795.000,5.73554,
4794.000,5.69342,
4793.000,5.65111,
4792.000,5.60967,
4791.000,5.56923,
4790.000,5.52949,
4789.000,5.49046,
4788.000,5.45235,
4787.000,5.41511,
4786.000,5.3785,
4785.000,5.34216,
4784.000,5.30541,
4783.000,5.26748,
4782.000,5.22848,
4781.000,5.18979,
4780.000,5.15265,
4779.000,5.11675,
4778.000,5.08076,
4777.000,5.04394,
4776.000,5.0067,
4775.000,4.96989,
4774.000,4.93413,
4773.000,4.89948,
4772.000,4.86542,
4771.000,4.83105,
4770.000,4.79591,
4769.000,4.76047,
4768.000,4.72542,
4767.000,4.69078,
4766.000,4.65603,
4765.000,4.621,
4764.000,4.58612,
4763.000,4.55192,
4762.000,4.51872,
4761.000,4.48669,
4760.000,4.45567,
4759.000,4.42496,
4758.000,4.39373,
4757.000,4.36166,
4756.000,4.32903,
4755.000,4.29635,
4754.000,4.26405,
4753.000,4.23221,
4752.000,4.20057,
4751.000,4.16873,
4750.000,4.13682,
4749.000,4.10551,
4748.000,4.07517,
4747.000,4.04527,
4746.000,4.01505,
4745.000,3.98445,
4744.000,3.95409,
4743.000,3.92443,
4742.000,3.89535,
4741.000,3.86631,
4740.000,3.83659,
4739.000,3.80564,
4738.000,3.77358,
4737.000,3.74139,
4736.000,3.71024,
4735.000,3.68067,
4734.000,3.65259,
4733.000,3.62561,
4732.000,3.59922,
4731.000,3.57262,
4730.000,3.54514,
4729.000,3.5168,
4728.000,3.48827,
4727.000,3.46033,
4726.000,3.43327,
4725.000,3.40681,
4724.000,3.38026,
4723.000,3.35288,
4722.000,3.32453,
4721.000,3.2958,
4720.000,3.26753,
4719.000,3.24006,
4718.000,3.21318,
4717.000,3.1866,
4716.000,3.16021,
4715.000,3.13404,
4714.000,3.10804,
4713.000,3.08219,
4712.000,3.05652,
4711.000,3.03121,
4710.000,3.00652,
4709.000,2.98259,
4708.000,2.95908,
4707.000,2.93507,
4706.000,2.90971,
4705.000,2.88292,
4704.000,2.85559,
4703.000,2.82899,
4702.000,2.80395,
4701.000,2.78045,
4700.000,2.75786,
4699.000,2.73557,
4698.000,2.71328,
4697.000,2.69087,
4696.000,2.66809,
4695.000,2.64477,
4694.000,2.62114,
4693.000,2.59769,
4692.000,2.5748,
4691.000,2.55243,
4690.000,2.5303,
4689.000,2.50813,
4688.000,2.48574,
4687.000,2.46324,
4686.000,2.44101,
4685.000,2.4193,
4684.000,2.39786,
4683.000,2.37626,
4682.000,2.35452,
4681.000,2.33306,
4680.000,2.3122,
4679.000,2.29194,
4678.000,2.27228,
4677.000,2.25342,
4676.000,2.23526,
4675.000,2.21724,
4674.000,2.19876,
4673.000,2.17972,
4672.000,2.16052,
4671.000,2.14169,
4670.000,2.12365,
4669.000,2.10646,
4668.000,2.08994,
4667.000,2.0739,
4666.000,2.05846,
4665.000,2.04363,
4664.000,2.02871,
4663.000,2.01252,
4662.000,1.99449,
4661.000,1.97529,
4660.000,1.95617,
4659.000,1.93794,
4658.000,1.92062,
4657.000,1.90403,
4656.000,1.88816,
4655.000,1.87319,
4654.000,1.85917,
4653.000,1.84567,
4652.000,1.83187,
4651.000,1.81712,
4650.000,1.80153,
4649.000,1.78577,
4648.000,1.77018,
4647.000,1.75451,
4646.000,1.73855,
4645.000,1.72265,
4644.000,1.70741,
4643.000,1.69305,
4642.000,1.67938,
4641.000,1.66611,
4640.000,1.6529,
4639.000,1.63918,
4638.000,1.62442,
4637.000,1.60861,
4636.000,1.59243,
4635.000,1.57685,
4634.000,1.56248,
4633.000,1.54919,
4632.000,1.53611,
4631.000,1.52246,
4630.000,1.50832,
4629.000,1.49467,
4628.000,1.48233,
4627.000,1.47091,
4626.000,1.45919,
4625.000,1.44631,
4624.000,1.43235,
4623.000,1.41801,
4622.000,1.40382,
4621.000,1.38998,
4620.000,1.37662,
4619.000,1.3638,
4618.000,1.35147,
4617.000,1.33931,
4616.000,1.3269,
4615.000,1.31406,
4614.000,1.30101,
4613.000,1.28834,
4612.000,1.27648,
4611.000,1.26534,
4610.000,1.25444,
4609.000,1.24363,
4608.000,1.23323,
4607.000,1.22355,
4606.000,1.21418,
4605.000,1.20422,
4604.000,1.19308,
4603.000,1.181,
4602.000,1.16881,
4601.000,1.1573,
4600.000,1.14674,
4599.000,1.13686,
4598.000,1.12705,
4597.000,1.11678,
4596.000,1.10593,
4595.000,1.09482,
4594.000,1.08388,
4593.000,1.07338,
4592.000,1.06339,
4591.000,1.05385,
4590.000,1.04462,
4589.000,1.03552,
4588.000,1.02666,
4587.000,1.01842,
4586.000,1.01105,
4585.000,1.00433,
4584.000,0.997871,
4583.000,0.991489,
4582.000,0.985087,
4581.000,0.978272,
4580.000,0.970566,
4579.000,0.962057,
4578.000,0.953602,
4577.000,0.946257,
4576.000,0.940436,
4575.000,0.935477,
4574.000,0.929941,
4573.000,0.922617,
4572.000,0.913648,
4571.000,0.904704,
4570.000,0.897703,
4569.000,0.893148,
4568.000,0.889844,
4567.000,0.886084,
4566.000,0.880875,
4565.000,0.874239,
4564.000,0.866917,
4563.000,0.859984,
4562.000,0.854301,
4561.000,0.849975,
4560.000,0.846349,
4559.000,0.842593,
4558.000,0.838207,
4557.000,0.833102,
4556.000,0.827537,
4555.000,0.822089,
4554.000,0.817293,
4553.000,0.813175,
4552.000,0.809391,
4551.000,0.805854,
4550.000,0.802853,
4549.000,0.800424,
4548.000,0.798061,
4547.000,0.795338,
4546.000,0.79243,
4545.000,0.789696,
4544.000,0.786998,
4543.000,0.783833,
4542.000,0.780049,
4541.000,0.776171,
4540.000,0.773061,
4539.000,0.771371,
4538.000,0.771064,
4537.000,0.771238,
4536.000,0.770626,
4535.000,0.768614,
4534.000,0.765669,
4533.000,0.762676,
4532.000,0.760128,
4531.000,0.758147,
4530.000,0.75684,
4529.000,0.756063,
4528.000,0.754991,
4527.000,0.752576,
4526.000,0.748651,
4525.000,0.744333,
4524.000,0.741197,
4523.000,0.740165,
4522.000,0.741047,
4521.000,0.7428,
4520.000,0.744178,
4519.000,0.744442,
4518.000,0.743686,
4517.000,0.742499,
4516.000,0.741361,
4515.000,0.740418,
4514.000,0.739668,
4513.000,0.739101,
4512.000,0.738647,
4511.000,0.738228,
4510.000,0.737901,
4509.000,0.737765,
4508.000,0.737686,
4507.000,0.737341,
4506.000,0.736634,
4505.000,0.735897,
4504.000,0.735531,
4503.000,0.735539,
4502.000,0.735557,
4501.000,0.735339,
4500.000,0.735129,
4499.000,0.735469,
4498.000,0.736636,
4497.000,0.738298,
4496.000,0.739804,
4495.000,0.740815,
4494.000,0.741573,
4493.000,0.742525,
4492.000,0.743857,
4491.000,0.745448,
4490.000,0.747134,
4489.000,0.748808,
4488.000,0.750276,
4487.000,0.751179,
4486.000,0.751218,
4485.000,0.750539,
4484.000,0.749935,
4483.000,0.750537,
4482.000,0.753063,
4481.000,0.757175,
4480.000,0.761654,
4479.000,0.765275,
4478.000,0.767559,
4477.000,0.768815,
4476.000,0.769764,
4475.000,0.771162,
4474.000,0.773493,
4473.000,0.776663,
4472.000,0.779993,
4471.000,0.782691,
4470.000,0.784408,
4469.000,0.785439,
4468.000,0.786532,
4467.000,0.788526,
4466.000,0.791926,
4465.000,0.796538,
4464.000,0.801553,
4463.000,0.806123,
4462.000,0.809901,
4461.000,0.812982,
4460.000,0.81559,
4459.000,0.818014,
4458.000,0.820728,
4457.000,0.824269,
4456.000,0.828851,
4455.000,0.834131,
4454.000,0.839367,
4453.000,0.843884,
4452.000,0.847575,
4451.000,0.85109,
4450.000,0.85538,
4449.000,0.860869,
4448.000,0.867035,
4447.000,0.872906,
4446.000,0.877943,
4445.000,0.882389,
4444.000,0.886891,
4443.000,0.891988,
4442.000,0.897866,
4441.000,0.904356,
4440.000,0.911098,
4439.000,0.917782,
4438.000,0.924318,
4437.000,0.930839,
4436.000,0.937599,
4435.000,0.944789,
4434.000,0.952311,
4433.000,0.959726,
4432.000,0.966678,
4431.000,0.973478,
4430.000,0.98105,
4429.000,0.989971,
4428.000,0.999684,
4427.000,1.00892,
4426.000,1.01687,
4425.000,1.0239,
4424.000,1.03097,
4423.000,1.03885,
4422.000,1.04771,
4421.000,1.0573,
4420.000,1.06732,
4419.000,1.07747,
4418.000,1.08752,
4417.000,1.09726,
4416.000,1.10669,
4415.000,1.1161,
4414.000,1.12601,
4413.000,1.13662,
4412.000,1.14768,
4411.000,1.15884,
4410.000,1.17011,
4409.000,1.18184,
4408.000,1.19437,
4407.000,1.20772,
4406.000,1.22162,
4405.000,1.23555,
4404.000,1.24894,
4403.000,1.26163,
4402.000,1.27416,
4401.000,1.28743,
4400.000,1.30184,
4399.000,1.31699,
4398.000,1.33218,
4397.000,1.34709,
4396.000,1.36195,
4395.000,1.37716,
4394.000,1.39285,
4393.000,1.40877,
4392.000,1.42453,
4391.000,1.4401,
4390.000,1.4559,
4389.000,1.47242,
4388.000,1.48974,
4387.000,1.50751,
4386.000,1.52536,
4385.000,1.5431,
4384.000,1.56071,
4383.000,1.57846,
4382.000,1.59694,
4381.000,1.6168,
4380.000,1.63817,
4379.000,1.66046,
4378.000,1.68276,
4377.000,1.70431,
4376.000,1.7247,
4375.000,1.74398,
4374.000,1.76281,
4373.000,1.78211,
4372.000,1.80246,
4371.000,1.82377,
4370.000,1.8457,
4369.000,1.86809,
4368.000,1.89104,
4367.000,1.91467,
4366.000,1.93909,
4365.000,1.96431,
4364.000,1.99017,
4363.000,2.01632,
4362.000,2.04254,
4361.000,2.06888,
4360.000,2.09545,
4359.000,2.12237,
4358.000,2.14999,
4357.000,2.17896,
4356.000,2.20957,
4355.000,2.24118,
4354.000,2.27267,
4353.000,2.30345,
4352.000,2.33392,
4351.000,2.36503,
4350.000,2.39753,
4349.000,2.4315,
4348.000,2.46633,
4347.000,2.50123,
4346.000,2.53568,
4345.000,2.56979,
4344.000,2.60408,
4343.000,2.63921,
4342.000,2.67578,
4341.000,2.71422,
4340.000,2.75428,
4339.000,2.7951,
4338.000,2.83586,
4337.000,2.87656,
4336.000,2.91785,
4335.000,2.96013,
4334.000,3.00315,
4333.000,3.04644,
4332.000,3.08981,
4331.000,3.1333,
4330.000,3.17696,
4329.000,3.2208,
4328.000,3.26491,
4327.000,3.30944,
4326.000,3.3546,
4325.000,3.40069,
4324.000,3.44798,
4323.000,3.49638,
4322.000,3.54533,
4321.000,3.59412,
4320.000,3.64222,
4319.000,3.68965,
4318.000,3.73693,
4317.000,3.78464,
4316.000,3.83292,
4315.000,3.88143,
4314.000,3.92994,
4313.000,3.97879,
4312.000,4.02871,
4311.000,4.08009,
4310.000,4.13266,
4309.000,4.18572,
4308.000,4.23851,
4307.000,4.29048,
4306.000,4.34163,
4305.000,4.39245,
4304.000,4.44341,
4303.000,4.49457,
4302.000,4.54572,
4301.000,4.59687,
4300.000,4.64827,
4299.000,4.70003,
4298.000,4.75188,
4297.000,4.80334,
4296.000,4.85414,
4295.000,4.90418,
4294.000,4.95344,
4293.000,5.00175,
4292.000,5.04879,
4291.000,5.09444,
4290.000,5.13905,
4289.000,5.18311,
4288.000,5.22656,
4287.000,5.26863,
4286.000,5.30865,
4285.000,5.34696,
4284.000,5.38462,
4283.000,5.4225,
4282.000,5.46056,
4281.000,5.49825,
4280.000,5.53507,
4279.000,5.57096,
4278.000,5.60625,
4277.000,5.64129,
4276.000,5.67604,
4275.000,5.70982,
4274.000,5.74183,
4273.000,5.77155,
4272.000,5.79896,
4271.000,5.82435,
4270.000,5.84817,
4269.000,5.8707,
4268.000,5.89172,
4267.000,5.91068,
4266.000,5.92735,
4265.000,5.94211,
4264.000,5.95553,
4263.000,5.9677,
4262.000,5.97838,
4261.000,5.9873,
4260.000,5.9943,
4259.000,5.99908,
4258.000,6.00133,
4257.000,6.00095,
4256.000,5.99821,
4255.000,5.99345,
4254.000,5.98697,
4253.000,5.979,
4252.000,5.96957,
4251.000,5.95854,
4250.000,5.94568,
4249.000,5.93091,
4248.000,5.9142,
4247.000,5.89556,
4246.000,5.87502,
4245.000,5.8527,
4244.000,5.82875,
4243.000,5.80338,
4242.000,5.77683,
4241.000,5.7492,
4240.000,5.72013,
4239.000,5.68898,
4238.000,5.65554,
4237.000,5.6204,
4236.000,5.58457,
4235.000,5.54893,
4234.000,5.51397,
4233.000,5.47977,
4232.000,5.44586,
4231.000,5.41134,
4230.000,5.3754,
4229.000,5.33798,
4228.000,5.29959,
4227.000,5.26083,
4226.000,5.222,
4225.000,5.18306,
4224.000,5.14383,
4223.000,5.10425,
4222.000,5.06451,
4221.000,5.02502,
4220.000,4.98611,
4219.000,4.94783,
4218.000,4.91011,
4217.000,4.87279,
4216.000,4.83575,
4215.000,4.79892,
4214.000,4.76239,
4213.000,4.72638,
4212.000,4.69104,
4211.000,4.65629,
4210.000,4.62196,
4209.000,4.58793,
4208.000,4.55417,
4207.000,4.52074,
4206.000,4.48769,
4205.000,4.45492,
4204.000,4.42208,
4203.000,4.38877,
4202.000,4.35485,
4201.000,4.32048,
4200.000,4.28588,
4199.000,4.25134,
4198.000,4.21728,
4197.000,4.18413,
4196.000,4.15182,
4195.000,4.11963,
4194.000,4.08665,
4193.000,4.05252,
4192.000,4.01755,
4191.000,3.98254,
4190.000,3.94822,
4189.000,3.91494,
4188.000,3.88257,
4187.000,3.85063,
4186.000,3.81871,
4185.000,3.78671,
4184.000,3.75486,
4183.000,3.72348,
4182.000,3.69266,
4181.000,3.66223,
4180.000,3.63183,
4179.000,3.60138,
4178.000,3.57114,
4177.000,3.54147,
4176.000,3.51234,
4175.000,3.48335,
4174.000,3.45413,
4173.000,3.42462,
4172.000,3.3951,
4171.000,3.36594,
4170.000,3.33745,
4169.000,3.30962,
4168.000,3.28202,
4167.000,3.25404,
4166.000,3.22539,
4165.000,3.19647,
4164.000,3.16816,
4163.000,3.14117,
4162.000,3.1155,
4161.000,3.09042,
4160.000,3.06498,
4159.000,3.03877,
4158.000,3.01222,
4157.000,2.98605,
4156.000,2.96055,
4155.000,2.93526,
4154.000,2.90953,
4153.000,2.8832,
4152.000,2.85686,
4151.000,2.83143,
4150.000,2.80743,
4149.000,2.78454,
4148.000,2.76182,
4147.000,2.7384,
4146.000,2.71389,
4145.000,2.68841,
4144.000,2.66248,
4143.000,2.63692,
4142.000,2.61252,
4141.000,2.58945,
4140.000,2.56701,
4139.000,2.54422,
4138.000,2.52058,
4137.000,2.4963,
4136.000,2.47187,
4135.000,2.44768,
4134.000,2.4241,
4133.000,2.40147,
4132.000,2.3798,
4131.000,2.35862,
4130.000,2.33726,
4129.000,2.31542,
4128.000,2.29334,
4127.000,2.27149,
4126.000,2.25011,
4125.000,2.22909,
4124.000,2.20813,
4123.000,2.18692,
4122.000,2.16536,
4121.000,2.14365,
4120.000,2.12227,
4119.000,2.10164,
4118.000,2.0818,
4117.000,2.06222,
4116.000,2.04231,
4115.000,2.02202,
4114.000,2.00183,
4113.000,1.98215,
4112.000,1.96285,
4111.000,1.94358,
4110.000,1.92437,
4109.000,1.90575,
4108.000,1.88807,
4107.000,1.87108,
4106.000,1.85406,
4105.000,1.83637,
4104.000,1.81787,
4103.000,1.79889,
4102.000,1.77988,
4101.000,1.76112,
4100.000,1.74261,
4099.000,1.72416,
4098.000,1.70566,
4097.000,1.68723,
4096.000,1.66934,
4095.000,1.65253,
4094.000,1.63689,
4093.000,1.62168,
4092.000,1.60572,
4091.000,1.58838,
4090.000,1.57023,
4089.000,1.55254,
4088.000,1.53626,
4087.000,1.52143,
4086.000,1.50751,
4085.000,1.49382,
4084.000,1.47978,
4083.000,1.46496,
4082.000,1.44928,
4081.000,1.4332,
4080.000,1.41755,
4079.000,1.403,
4078.000,1.38953,
4077.000,1.37656,
4076.000,1.36336,
4075.000,1.34962,
4074.000,1.33558,
4073.000,1.32163,
4072.000,1.30787,
4071.000,1.29394,
4070.000,1.27955,
4069.000,1.26493,
4068.000,1.25082,
4067.000,1.23773,
4066.000,1.22551,
4065.000,1.21352,
4064.000,1.20129,
4063.000,1.18891,
4062.000,1.17662,
4061.000,1.16432,
4060.000,1.15169,
4059.000,1.13863,
4058.000,1.12542,
4057.000,1.1124,
4056.000,1.09953,
4055.000,1.08652,
4054.000,1.07332,
4053.000,1.06042,
4052.000,1.04848,
4051.000,1.03764,
4050.000,1.02731,
4049.000,1.01654,
4048.000,1.00491,
4047.000,0.992854,
4046.000,0.981054,
4045.000,0.969724,
4044.000,0.958527,
4043.000,0.947231,
4042.000,0.936128,
4041.000,0.925675,
4040.000,0.915921,
4039.000,0.906472,
4038.000,0.896964,
4037.000,0.887359,
4036.000,0.877734,
4035.000,0.868028,
4034.000,0.858069,
4033.000,0.847768,
4032.000,0.837179,
4031.000,0.826441,
4030.000,0.815809,
4029.000,0.805684,
4028.000,0.796424,
4027.000,0.787979,
4026.000,0.779823,
4025.000,0.771425,
4024.000,0.762752,
4023.000,0.754247,
4022.000,0.746256,
4021.000,0.738605,
4020.000,0.730838,
4019.000,0.722733,
4018.000,0.714468,
4017.000,0.706335,
4016.000,0.6985,
4015.000,0.691077,
4014.000,0.684215,
4013.000,0.677934,
4012.000,0.671942,
4011.000,0.665796,
4010.000,0.659261,
4009.000,0.652418,
4008.000,0.64546,
4007.000,0.63854,
4006.000,0.631817,
4005.000,0.625475,
4004.000,0.619545,
4003.000,0.613826,
4002.000,0.608123,
4001.000,0.602521,
4000.000,0.597234,
3999.000,0.592233,
3998.000,0.587175,
3997.000,0.581803,
3996.000,0.576287,
3995.000,0.571043,
3994.000,0.566278,
3993.000,0.561853,
3992.000,0.557511,
3991.000,0.553082,
3990.000,0.548511,
3989.000,0.543858,
3988.000,0.539336,
3987.000,0.535203,
3986.000,0.531454,
3985.000,0.527686,
3984.000,0.52345,
3983.000,0.518807,
3982.000,0.51442,
3981.000,0.51097,
3980.000,0.508499,
3979.000,0.506345,
3978.000,0.503705,
3977.000,0.500316,
3976.000,0.496597,
3975.000,0.493204,
3974.000,0.490441,
3973.000,0.488034,
3972.000,0.48546,
3971.000,0.482512,
3970.000,0.479516,
3969.000,0.476954,
3968.000,0.474863,
3967.000,0.472658,
3966.000,0.469686,
3965.000,0.466002,
3964.000,0.462575,
3963.000,0.460592,
3962.000,0.460444,
3961.000,0.461262,
3960.000,0.461519,
3959.000,0.460192,
3958.000,0.457458,
3957.000,0.454374,
3956.000,0.451866,
3955.000,0.450067,
3954.000,0.448546,
3953.000,0.44695,
3952.000,0.445302,
3951.000,0.443732,
3950.000,0.442111,
3949.000,0.440122,
3948.000,0.437636,
3947.000,0.434976,
3946.000,0.432775,
3945.000,0.431538,
3944.000,0.43116,
3943.000,0.430819,
3942.000,0.429561,
3941.000,0.427261,
3940.000,0.42494,
3939.000,0.423837,
3938.000,0.424114,
3937.000,0.424629,
3936.000,0.424111,
3935.000,0.422433,
3934.000,0.420603,
3933.000,0.41961,
3932.000,0.41952,
3931.000,0.419708,
3930.000,0.419674,
3929.000,0.4194,
3928.000,0.419035,
3927.000,0.418627,
3926.000,0.418275,
3925.000,0.418203,
3924.000,0.418453,
3923.000,0.418664,
3922.000,0.4184,
3921.000,0.417632,
3920.000,0.416695,
3919.000,0.415819,
3918.000,0.414929,
3917.000,0.413961,
3916.000,0.413175,
3915.000,0.412909,
3914.000,0.413113,
3913.000,0.413364,
3912.000,0.41331,
3911.000,0.412953,
3910.000,0.41253,
3909.000,0.412211,
3908.000,0.412004,
3907.000,0.411889,
3906.000,0.411965,
3905.000,0.412419,
3904.000,0.413318,
3903.000,0.414461,
3902.000,0.415466,
3901.000,0.416034,
3900.000,0.416109,
3899.000,0.415855,
3898.000,0.415532,
3897.000,0.415371,
3896.000,0.415544,
3895.000,0.41622,
3894.000,0.417518,
3893.000,0.419239,
3892.000,0.42073,
3891.000,0.421286,
3890.000,0.420965,
3889.000,0.420692,
3888.000,0.421211,
3887.000,0.422214,
3886.000,0.4228,
3885.000,0.422681,
3884.000,0.422673,
3883.000,0.423734,
3882.000,0.425887,
3881.000,0.428297,
3880.000,0.430118,
3879.000,0.431115,
3878.000,0.43163,
3877.000,0.432135,
3876.000,0.432935,
3875.000,0.434163,
3874.000,0.435734,
3873.000,0.43724,
3872.000,0.438186,
3871.000,0.438498,
3870.000,0.438712,
3869.000,0.439519,
3868.000,0.44109,
3867.000,0.442979,
3866.000,0.444688,
3865.000,0.446164,
3864.000,0.447695,
3863.000,0.449457,
3862.000,0.451383,
3861.000,0.453409,
3860.000,0.455547,
3859.000,0.457676,
3858.000,0.459584,
3857.000,0.461245,
3856.000,0.462916,
3855.000,0.464853,
3854.000,0.466931,
3853.000,0.468726,
3852.000,0.470043,
3851.000,0.471395,
3850.000,0.47348,
3849.000,0.476273,
3848.000,0.479312,
3847.000,0.482467,
3846.000,0.486018,
3845.000,0.49014,
3844.000,0.494472,
3843.000,0.498359,
3842.000,0.501487,
3841.000,0.504149,
3840.000,0.50682,
3839.000,0.509544,
3838.000,0.511979,
3837.000,0.513987,
3836.000,0.516028,
3835.000,0.518798,
3834.000,0.522575,
3833.000,0.527068,
3832.000,0.531726,
3831.000,0.536133,
3830.000,0.5402,
3829.000,0.544089,
3828.000,0.548047,
3827.000,0.552311,
3826.000,0.556972,
3825.000,0.5618,
3824.000,0.566355,
3823.000,0.570439,
3822.000,0.574503,
3821.000,0.579315,
3820.000,0.585008,
3819.000,0.590937,
3818.000,0.596622,
3817.000,0.602079,
3816.000,0.607307,
3815.000,0.612038,
3814.000,0.616214,
3813.000,0.620434,
3812.000,0.625503,
3811.000,0.631753,
3810.000,0.63894,
3809.000,0.646604,
3808.000,0.654334,
3807.000,0.661796,
3806.000,0.668798,
3805.000,0.675568,
3804.000,0.682678,
3803.000,0.690469,
3802.000,0.69874,
3801.000,0.706821,
3800.000,0.714071,
3799.000,0.720466,
3798.000,0.726574,
3797.000,0.733134,
3796.000,0.740774,
3795.000,0.749649,
3794.000,0.759253,
3793.000,0.768882,
3792.000,0.778264,
3791.000,0.78776,
3790.000,0.797918,
3789.000,0.808931,
3788.000,0.820571,
3787.000,0.832577,
3786.000,0.84484,
3785.000,0.857194,
3784.000,0.869268,
3783.000,0.880785,
3782.000,0.891937,
3781.000,0.903179,
3780.000,0.914702,
3779.000,0.926293,
3778.000,0.937774,
3777.000,0.949452,
3776.000,0.961952,
3775.000,0.975651,
3774.000,0.990579,
3773.000,1.00666,
3772.000,1.02377,
3771.000,1.04147,
3770.000,1.05898,
3769.000,1.07551,
3768.000,1.09091,
3767.000,1.10583,
3766.000,1.12104,
3765.000,1.13679,
3764.000,1.153,
3763.000,1.16988,
3762.000,1.18811,
3761.000,1.20814,
3760.000,1.22947,
3759.000,1.25082,
3758.000,1.27121,
3757.000,1.29092,
3756.000,1.31131,
3755.000,1.33366,
3754.000,1.35854,
3753.000,1.38563,
3752.000,1.41354,
3751.000,1.43981,
3750.000,1.4623,
3749.000,1.48136,
3748.000,1.50035,
3747.000,1.52247,
3746.000,1.54797,
3745.000,1.57433,
3744.000,1.59842,
3743.000,1.61978,
3742.000,1.64161,
3741.000,1.66721,
3740.000,1.69718,
3739.000,1.73023,
3738.000,1.76478,
3737.000,1.79958,
3736.000,1.83357,
3735.000,1.86598,
3734.000,1.89659,
3733.000,1.92593,
3732.000,1.9546,
3731.000,1.98311,
3730.000,2.01255,
3729.000,2.04454,
3728.000,2.07991,
3727.000,2.11803,
3726.000,2.1573,
3725.000,2.19632,
3724.000,2.23421,
3723.000,2.2706,
3722.000,2.30586,
3721.000,2.34104,
3720.000,2.37721,
3719.000,2.41459,
3718.000,2.45279,
3717.000,2.49151,
3716.000,2.53089,
3715.000,2.57133,
3714.000,2.61313,
3713.000,2.65635,
3712.000,2.7005,
3711.000,2.74439,
3710.000,2.78671,
3709.000,2.82741,
3708.000,2.86772,
3707.000,2.90854,
3706.000,2.94998,
3705.000,2.99184,
3704.000,3.03396,
3703.000,3.07638,
3702.000,3.11916,
3701.000,3.16204,
3700.000,3.20435,
3699.000,3.24569,
3698.000,3.28624,
3697.000,3.32626,
3696.000,3.36569,
3695.000,3.40451,
3694.000,3.44291,
3693.000,3.48097,
3692.000,3.51827,
3691.000,3.55407,
3690.000,3.58798,
3689.000,3.6201,
3688.000,3.65091,
3687.000,3.68156,
3686.000,3.71301,
3685.000,3.74425,
3684.000,3.77321,
3683.000,3.79927,
3682.000,3.82377,
3681.000,3.84831,
3680.000,3.87273,
3679.000,3.89507,
3678.000,3.91323,
3677.000,3.92706,
3676.000,3.93915,
3675.000,3.95275,
3674.000,3.96816,
3673.000,3.9826,
3672.000,3.99245,
3671.000,3.99563,
3670.000,3.99455,
3669.000,3.99422,
3668.000,3.99638,
3667.000,3.9985,
3666.000,3.99713,
3665.000,3.99046,
3664.000,3.97922,
3663.000,3.96557,
3662.000,3.9514,
3661.000,3.93723,
3660.000,3.92205,
3659.000,3.90427,
3658.000,3.88322,
3657.000,3.86033,
3656.000,3.83848,
3655.000,3.81949,
3654.000,3.80195,
3653.000,3.78176,
3652.000,3.75563,
3651.000,3.72503,
3650.000,3.6963,
3649.000,3.67459,
3648.000,3.65811,
3647.000,3.64105,
3646.000,3.61996,
3645.000,3.59449,
3644.000,3.56521,
3643.000,3.53313,
3642.000,3.50015,
3641.000,3.46828,
3640.000,3.43822,
3639.000,3.40914,
3638.000,3.38008,
3637.000,3.35069,
3636.000,3.32116,
3635.000,3.29175,
3634.000,3.26324,
3633.000,3.23674,
3632.000,3.21059,
3631.000,3.18477,
3630.000,3.15862,
3629.000,3.13258,
3628.000,3.10659,
3627.000,3.08161,
3626.000,3.05469,
3625.000,3.0233,
3624.000,2.99926,
3623.000,2.96974,
3622.000,2.9393,
3621.000,2.90907,
3620.000,2.88101,
3619.000,2.85596,
3618.000,2.83426,
3617.000,2.81437,
3616.000,2.79393,
3615.000,2.77127,
3614.000,2.74653,
3613.000,2.72114,
3612.000,2.69615,
3611.000,2.67153,
3610.000,2.64718,
3609.000,2.62385,
3608.000,2.60257,
3607.000,2.58329,
3606.000,2.56448,
3605.000,2.5443,
3604.000,2.52203,
3603.000,2.49856,
3602.000,2.47558,
3601.000,2.45424,
3600.000,2.43431,
3599.000,2.41473,
3598.000,2.39472,
3597.000,2.37422,
3596.000,2.35348,
3595.000,2.3328,
3594.000,2.3123,
3593.000,2.29185,
3592.000,2.27088,
3591.000,2.24865,
3590.000,2.22504,
3589.000,2.20141,
3588.000,2.18018,
3587.000,2.16278,
3586.000,2.148,
3585.000,2.13313,
3584.000,2.11634,
3583.000,2.09746,
3582.000,2.07734,
3581.000,2.0569,
3580.000,2.03668,
3579.000,2.01696,
3578.000,1.99794,
3577.000,1.97964,
3576.000,1.96173,
3575.000,1.94374,
3574.000,1.92538,
3573.000,1.90678,
3572.000,1.88823,
3571.000,1.86971,
3570.000,1.85089,
3569.000,1.83179,
3568.000,1.81332,
3567.000,1.79659,
3566.000,1.7813,
3565.000,1.76583,
3564.000,1.74895,
3563.000,1.7308,
3562.000,1.71232,
3561.000,1.69434,
3560.000,1.67707,
3559.000,1.66019,
3558.000,1.64313,
3557.000,1.62535,
3556.000,1.60688,
3555.000,1.58831,
3554.000,1.57038,
3553.000,1.5535,
3552.000,1.53762,
3551.000,1.52232,
3550.000,1.50682,
3549.000,1.49017,
3548.000,1.4722,
3547.000,1.45395,
3546.000,1.43704,
3545.000,1.42224,
3544.000,1.40897,
3543.000,1.3959,
3542.000,1.3819,
3541.000,1.36651,
3540.000,1.35012,
3539.000,1.33365,
3538.000,1.31778,
3537.000,1.30241,
3536.000,1.28712,
3535.000,1.27202,
3534.000,1.25762,
3533.000,1.24403,
3532.000,1.23058,
3531.000,1.21661,
3530.000,1.2023,
3529.000,1.18848,
3528.000,1.17575,
3527.000,1.16391,
3526.000,1.15228,
3525.000,1.14025,
3524.000,1.12759,
3523.000,1.11426,
3522.000,1.10036,
3521.000,1.08623,
3520.000,1.07258,
3519.000,1.06001,
3518.000,1.04839,
3517.000,1.03699,
3516.000,1.02528,
3515.000,1.01348,
3514.000,1.00207,
3513.000,0.991166,
3512.000,0.98056,
3511.000,0.970144,
3510.000,0.959878,
3509.000,0.949594,
3508.000,0.939207,
3507.000,0.929029,
3506.000,0.919479,
3505.000,0.910474,
3504.000,0.901446,
3503.000,0.891888,
3502.000,0.881655,
3501.000,0.870804,
3500.000,0.859526,
3499.000,0.848346,
3498.000,0.838064,
3497.000,0.829166,
3496.000,0.821305,
3495.000,0.813468,
3494.000,0.804762,
3493.000,0.795046,
3492.000,0.7849,
3491.000,0.775016,
3490.000,0.765671,
3489.000,0.756768,
3488.000,0.748209,
3487.000,0.739933,
3486.000,0.731596,
3485.000,0.722598,
3484.000,0.712702,
3483.000,0.702477,
3482.000,0.692862,
3481.000,0.684332,
3480.000,0.676626,
3479.000,0.669181,
3478.000,0.661598,
3477.000,0.653769,
3476.000,0.6458,
3475.000,0.637817,
3474.000,0.629755,
3473.000,0.621412,
3472.000,0.612815,
3471.000,0.604386,
3470.000,0.596551,
3469.000,0.589258,
3468.000,0.582081,
3467.000,0.574731,
3466.000,0.567286,
3465.000,0.559924,
3464.000,0.552665,
3463.000,0.54546,
3462.000,0.538408,
3461.000,0.531749,
3460.000,0.525591,
3459.000,0.519659,
3458.000,0.513419,
3457.000,0.506556,
3456.000,0.499288,
3455.000,0.492087,
3454.000,0.485192,
3453.000,0.478619,
3452.000,0.472541,
3451.000,0.467214,
3450.000,0.462366,
3449.000,0.457056,
3448.000,0.450497,
3447.000,0.442937,
3446.000,0.435485,
3445.000,0.429141,
3444.000,0.424117,
3443.000,0.419952,
3442.000,0.416023,
3441.000,0.411947,
3440.000,0.40763,
3439.000,0.403012,
3438.000,0.397886,
3437.000,0.392231,
3436.000,0.386651,
3435.000,0.382066,
3434.000,0.378735,
3433.000,0.375891,
3432.000,0.37256,
3431.000,0.36848,
3430.000,0.363988,
3429.000,0.359346,
3428.000,0.354623,
3427.000,0.350081,
3426.000,0.346182,
3425.000,0.343111,
3424.000,0.340536,
3423.000,0.337882,
3422.000,0.334753,
3421.000,0.331177,
3420.000,0.327598,
3419.000,0.324512,
3418.000,0.321928,
3417.000,0.319346,
3416.000,0.31642,
3415.000,0.313454,
3414.000,0.310949,
3413.000,0.30886,
3412.000,0.306681,
3411.000,0.304211,
3410.000,0.301807,
3409.000,0.299847,
3408.000,0.2983,
3407.000,0.296899,
3406.000,0.295439,
3405.000,0.293768,
3404.000,0.291778,
3403.000,0.289589,
3402.000,0.28758,
3401.000,0.286039,
3400.000,0.284896,
3399.000,0.283876,
3398.000,0.282809,
3397.000,0.28167,
3396.000,0.280465,
3395.000,0.279254,
3394.000,0.278218,
3393.000,0.277543,
3392.000,0.277181,
3391.000,0.2768,
3390.000,0.276019,
3389.000,0.274664,
3388.000,0.272787,
3387.000,0.270523,
3386.000,0.268046,
3385.000,0.265672,
3384.000,0.263835,
3383.000,0.262803,
3382.000,0.26243,
3381.000,0.26232,
3380.000,0.262169,
3379.000,0.261802,
3378.000,0.260972,
3377.000,0.259403,
3376.000,0.257208,
3375.000,0.255074,
3374.000,0.253802,
3373.000,0.253627,
3372.000,0.254035,
3371.000,0.254128,
3370.000,0.253187,
3369.000,0.251122,
3368.000,0.248589,
3367.000,0.246569,
3366.000,0.245595,
3365.000,0.245346,
3364.000,0.245068,
3363.000,0.244333,
3362.000,0.243309,
3361.000,0.242405,
3360.000,0.241831,
3359.000,0.241447,
3358.000,0.240903,
3357.000,0.239942,
3356.000,0.238678,
3355.000,0.237546,
3354.000,0.236875,
3353.000,0.236534,
3352.000,0.236101,
3351.000,0.235343,
3350.000,0.23443,
3349.000,0.233726,
3348.000,0.233476,
3347.000,0.233663,
3346.000,0.234029,
3345.000,0.234255,
3344.000,0.234205,
3343.000,0.233971,
3342.000,0.233614,
3341.000,0.232974,
3340.000,0.231896,
3339.000,0.230518,
3338.000,0.229146,
3337.000,0.22787,
3336.000,0.226557,
3335.000,0.225301,
3334.000,0.224609,
3333.000,0.224897,
3332.000,0.225905,
3331.000,0.226813,
3330.000,0.226946,
3329.000,0.226248,
3328.000,0.225136,
3327.000,0.224099,
3326.000,0.223533,
3325.000,0.223718,
3324.000,0.224649,
3323.000,0.225889,
3322.000,0.226811,
3321.000,0.227097,
3320.000,0.22688,
3319.000,0.226346,
3318.000,0.225459,
3317.000,0.224271,
3316.000,0.223259,
3315.000,0.222993,
3314.000,0.22348,
3313.000,0.224143,
3312.000,0.224479,
3311.000,0.224467,
3310.000,0.224272,
3309.000,0.223882,
3308.000,0.223264,
3307.000,0.22262,
3306.000,0.22222,
3305.000,0.222155,
3304.000,0.222443,
3303.000,0.22318,
3302.000,0.224309,
3301.000,0.225378,
3300.000,0.22589,
3299.000,0.225881,
3298.000,0.225861,
3297.000,0.226158,
3296.000,0.226579,
3295.000,0.226846,
3294.000,0.227059,
3293.000,0.227528,
3292.000,0.228308,
3291.000,0.229112,
3290.000,0.229649,
3289.000,0.229878,
3288.000,0.229935,
3287.000,0.229989,
3286.000,0.230215,
3285.000,0.23072,
3284.000,0.23137,
3283.000,0.231755,
3282.000,0.231538,
3281.000,0.230901,
3280.000,0.230562,
3279.000,0.231208,
3278.000,0.232883,
3277.000,0.23495,
3276.000,0.23662,
3275.000,0.237488,
3274.000,0.237659,
3273.000,0.23752,
3272.000,0.237464,
3271.000,0.237737,
3270.000,0.238423,
3269.000,0.239485,
3268.000,0.240785,
3267.000,0.242086,
3266.000,0.243172,
3265.000,0.244065,
3264.000,0.245089,
3263.000,0.246581,
3262.000,0.248501,
3261.000,0.250412,
3260.000,0.251825,
3259.000,0.252506,
3258.000,0.25255,
3257.000,0.25236,
3256.000,0.252545,
3255.000,0.253531,
3254.000,0.255111,
3253.000,0.256548,
3252.000,0.257339,
3251.000,0.257782,
3250.000,0.258625,
3249.000,0.260243,
3248.000,0.262346,
3247.000,0.264396,
3246.000,0.266062,
3245.000,0.267235,
3244.000,0.267958,
3243.000,0.268549,
3242.000,0.269618,
3241.000,0.271643,
3240.000,0.274429,
3239.000,0.277151,
3238.000,0.279057,
3237.000,0.280103,
3236.000,0.280857,
3235.000,0.281885,
3234.000,0.283318,
3233.000,0.28495,
3232.000,0.286587,
3231.000,0.288228,
3230.000,0.290007,
3229.000,0.292072,
3228.000,0.294467,
3227.000,0.297066,
3226.000,0.299618,
3225.000,0.301945,
3224.000,0.304097,
3223.000,0.306269,
3222.000,0.308565,
3221.000,0.310877,
3220.000,0.313081,
3219.000,0.315302,
3218.000,0.317921,
3217.000,0.321191,
3216.000,0.324844,
3215.000,0.328235,
3214.000,0.331002,
3213.000,0.333552,
3212.000,0.336655,
3211.000,0.340564,
3210.000,0.344711,
3209.000,0.348332,
3208.000,0.35122,
3207.000,0.353774,
3206.000,0.356542,
3205.000,0.359879,
3204.000,0.363819,
3203.000,0.36801,
3202.000,0.371905,
3201.000,0.375355,
3200.000,0.378951,
3199.000,0.383458,
3198.000,0.388854,
3197.000,0.394233,
3196.000,0.398735,
3195.000,0.402359,
3194.000,0.405755,
3193.000,0.409526,
3192.000,0.413925,
3191.000,0.418984,
3190.000,0.424632,
3189.000,0.430677,
3188.000,0.43687,
3187.000,0.443028,
3186.000,0.449062,
3185.000,0.455002,
3184.000,0.461072,
3183.000,0.467597,
3182.000,0.474659,
3181.000,0.481908,
3180.000,0.488909,
3179.000,0.495677,
3178.000,0.502687,
3177.000,0.510299,
3176.000,0.5183,
3175.000,0.526175,
3174.000,0.533746,
3173.000,0.541383,
3172.000,0.549513,
3171.000,0.558097,
3170.000,0.566798,
3169.000,0.575613,
3168.000,0.585029,
3167.000,0.595364,
3166.000,0.60615,
3165.000,0.616529,
3164.000,0.62624,
3163.000,0.635905,
3162.000,0.64624,
3161.000,0.657252,
3160.000,0.668461,
3159.000,0.679693,
3158.000,0.691388,
3157.000,0.704104,
3156.000,0.717919,
3155.000,0.732397,
3154.000,0.746998,
3153.000,0.761456,
3152.000,0.775862,
3151.000,0.790437,
3150.000,0.805293,
3149.000,0.820338,
3148.000,0.835439,
3147.000,0.850656,
3146.000,0.866303,
3145.000,0.882726,
3144.000,0.899989,
3143.000,0.9178,
3142.000,0.935887,
3141.000,0.954372,
3140.000,0.973619,
3139.000,0.993641,
3138.000,1.01388,
3137.000,1.0338,
3136.000,1.05357,
3135.000,1.07378,
3134.000,1.09477,
3133.000,1.11637,
3132.000,1.1384,
3131.000,1.16099,
3130.000,1.18431,
3129.000,1.20822,
3128.000,1.23253,
3127.000,1.25727,
3126.000,1.28255,
3125.000,1.30829,
3124.000,1.33438,
3123.000,1.36095,
3122.000,1.38821,
3121.000,1.416,
3120.000,1.44398,
3119.000,1.47214,
3118.000,1.50082,
3117.000,1.53026,
3116.000,1.56021,
3115.000,1.59025,
3114.000,1.62026,
3113.000,1.65055,
3112.000,1.68155,
3111.000,1.71332,
3110.000,1.74547,
3109.000,1.77746,
3108.000,1.8091,
3107.000,1.84075,
3106.000,1.8729,
3105.000,1.90572,
3104.000,1.93911,
3103.000,1.9729,
3102.000,2.00701,
3101.000,2.0413,
3100.000,2.07571,
3099.000,2.11038,
3098.000,2.14538,
3097.000,2.18036,
3096.000,2.21462,
3095.000,2.24766,
3094.000,2.2795,
3093.000,2.31058,
3092.000,2.34135,
3091.000,2.37202,
3090.000,2.40237,
3089.000,2.43182,
3088.000,2.45975,
3087.000,2.48595,
3086.000,2.51061,
3085.000,2.53407,
3084.000,2.5565,
3083.000,2.57794,
3082.000,2.59832,
3081.000,2.61719,
3080.000,2.63388,
3079.000,2.6479,
3078.000,2.65927,
3077.000,2.66836,
3076.000,2.67533,
3075.000,2.68005,
3074.000,2.68242,
3073.000,2.68257,
3072.000,2.68081,
3071.000,2.6772,
3070.000,2.67161,
3069.000,2.66391,
3068.000,2.65412,
3067.000,2.64233,
3066.000,2.62882,
3065.000,2.61427,
3064.000,2.59946,
3063.000,2.5845,
3062.000,2.56861,
3061.000,2.55094,
3060.000,2.53151,
3059.000,2.51102,
3058.000,2.48996,
3057.000,2.46833,
3056.000,2.44617,
3055.000,2.42383,
3054.000,2.40139,
3053.000,2.37851,
3052.000,2.35491,
3051.000,2.33088,
3050.000,2.30697,
3049.000,2.28327,
3048.000,2.25949,
3047.000,2.2354,
3046.000,2.21102,
3045.000,2.18651,
3044.000,2.1619,
3043.000,2.1369,
3042.000,2.11098,
3041.000,2.08369,
3040.000,2.05519,
3039.000,2.02621,
3038.000,1.99729,
3037.000,1.96828,
3036.000,1.93868,
3035.000,1.90836,
3034.000,1.8777,
3033.000,1.84709,
3032.000,1.81662,
3031.000,1.7863,
3030.000,1.75617,
3029.000,1.7264,
3028.000,1.69717,
3027.000,1.66868,
3026.000,1.64101,
3025.000,1.61398,
3024.000,1.58731,
3023.000,1.56073,
3022.000,1.5341,
3021.000,1.50731,
3020.000,1.4803,
3019.000,1.45324,
3018.000,1.42643,
3017.000,1.40004,
3016.000,1.37389,
3015.000,1.34751,
3014.000,1.32054,
3013.000,1.29297,
3012.000,1.26519,
3011.000,1.23758,
3010.000,1.21018,
3009.000,1.18273,
3008.000,1.15488,
3007.000,1.12659,
3006.000,1.09808,
3005.000,1.06968,
3004.000,1.0415,
3003.000,1.01334,
3002.000,0.984796,
3001.000,0.955657,
3000.000,0.925993,
2999.000,0.896041,
2998.000,0.866065,
2997.000,0.836353,
2996.000,0.807135,
2995.000,0.778405,
2994.000,0.749963,
2993.000,0.721703,
2992.000,0.693663,
2991.000,0.665729,
2990.000,0.637585,
2989.000,0.609185,
2988.000,0.581052,
2987.000,0.553798,
2986.000,0.52745,
2985.000,0.501552,
2984.000,0.475807,
2983.000,0.450359,
2982.000,0.425534,
2981.000,0.401621,
2980.000,0.378906,
2979.000,0.357559,
2978.000,0.337441,
2977.000,0.318261,
2976.000,0.299932,
2975.000,0.282626,
2974.000,0.266478,
2973.000,0.251498,
2972.000,0.237715,
2971.000,0.2251,
2970.000,0.213335,
2969.000,0.201962,
2968.000,0.190824,
2967.000,0.180133,
2966.000,0.170068,
2965.000,0.160635,
2964.000,0.151941,
2963.000,0.144233,
2962.000,0.137515,
2961.000,0.131426,
2960.000,0.125739,
2959.000,0.1207,
2958.000,0.116611,
2957.000,0.113275,
2956.000,0.110123,
2955.000,0.106778,
2954.000,0.103284,
2953.000,0.0998861,
2952.000,0.0967999,
2951.000,0.094093,
2950.000,0.0915833,
2949.000,0.0889224,
2948.000,0.0859494,
2947.000,0.0828918,
2946.000,0.0800904,
2945.000,0.0776456,
2944.000,0.0754932,
2943.000,0.0736891,
2942.000,0.0723812,
2941.000,0.0715485,
2940.000,0.0709913,
2939.000,0.0705985,
2938.000,0.0704774,
2937.000,0.0708741,
2936.000,0.0721107,
2935.000,0.0745204,
2934.000,0.0781991,
2933.000,0.0828073,
2932.000,0.0878849,
2931.000,0.0934393,
2930.000,0.100018,
2929.000,0.108097,
2928.000,0.117533,
2927.000,0.127734,
2926.000,0.138275,
2925.000,0.149246,
2924.000,0.161126,
2923.000,0.174385,
2922.000,0.189136,
2921.000,0.205045,
2920.000,0.221566,
2919.000,0.238303,
2918.000,0.255122,
2917.000,0.271962,
2916.000,0.288587,
2915.000,0.304524,
2914.000,0.319081,
2913.000,0.331505,
2912.000,0.341317,
2911.000,0.348662,
2910.000,0.35425,
2909.000,0.358841,
2908.000,0.362812,
2907.000,0.366222,
2906.000,0.36915,
2905.000,0.371767,
2904.000,0.374113,
2903.000,0.376008,
2902.000,0.377291,
2901.000,0.378061,
2900.000,0.378553,
2899.000,0.378811,
2898.000,0.378607,
2897.000,0.377681,
2896.000,0.375949,
2895.000,0.373445,
2894.000,0.370218,
2893.000,0.366373,
2892.000,0.362152,
2891.000,0.357803,
2890.000,0.353359,
2889.000,0.348606,
2888.000,0.343256,
2887.000,0.337057,
2886.000,0.329762,
2885.000,0.32116,
2884.000,0.311309,
2883.000,0.300733,
2882.000,0.290265,
2881.000,0.280534,
2880.000,0.271504,
2879.000,0.262526,
2878.000,0.252935,
2877.000,0.242555,
2876.000,0.231674,
2875.000,0.220672,
2874.000,0.209855,
2873.000,0.199608,
2872.000,0.190381,
2871.000,0.182374,
2870.000,0.175346,
2869.000,0.168896,
2868.000,0.162885,
2867.000,0.157504,
2866.000,0.153103,
2865.000,0.150116,
2864.000,0.149062,
2863.000,0.150465,
2862.000,0.154721,
2861.000,0.162063,
2860.000,0.172498,
2859.000,0.185646,
2858.000,0.200817,
2857.000,0.217496,
2856.000,0.235664,
2855.000,0.255434,
2854.000,0.276449,
2853.000,0.297855,
2852.000,0.31885,
2851.000,0.338973,
2850.000,0.357841,
2849.000,0.374926,
2848.000,0.389665,
2847.000,0.401627,
2846.000,0.410548,
2845.000,0.416395,
2844.000,0.419521,
2843.000,0.420502,
2842.000,0.419678,
2841.000,0.417016,
2840.000,0.412498,
2839.000,0.406434,
2838.000,0.399278,
2837.000,0.391339,
2836.000,0.38285,
2835.000,0.374195,
2834.000,0.365816,
2833.000,0.35795,
2832.000,0.350579,
2831.000,0.343539,
2830.000,0.336589,
2829.000,0.329505,
2828.000,0.322374,
2827.000,0.315758,
2826.000,0.310331,
2825.000,0.306234,
2824.000,0.302882,
2823.000,0.299458,
2822.000,0.29552,
2821.000,0.291179,
2820.000,0.286833,
2819.000,0.282814,
2818.000,0.279162,
2817.000,0.27558,
2816.000,0.271616,
2815.000,0.267043,
2814.000,0.26213,
2813.000,0.257437,
2812.000,0.253236,
2811.000,0.249208,
2810.000,0.24488,
2809.000,0.240326,
2808.000,0.236185,
2807.000,0.232847,
2806.000,0.229841,
2805.000,0.22631,
2804.000,0.221991,
2803.000,0.217482,
2802.000,0.213555,
2801.000,0.210443,
2800.000,0.207873,
2799.000,0.205506,
2798.000,0.203176,
2797.000,0.200804,
2796.000,0.198325,
2795.000,0.195713,
2794.000,0.192968,
2793.000,0.19008,
2792.000,0.18707,
2791.000,0.184033,
2790.000,0.181101,
2789.000,0.17839,
2788.000,0.17603,
2787.000,0.174162,
2786.000,0.172792,
2785.000,0.171664,
2784.000,0.170351,
2783.000,0.168561,
2782.000,0.16642,
2781.000,0.164436,
2780.000,0.163111,
2779.000,0.162479,
2778.000,0.162016,
2777.000,0.161073,
2776.000,0.159442,
2775.000,0.15745,
2774.000,0.155521,
2773.000,0.15376,
2772.000,0.15203,
2771.000,0.150315,
2770.000,0.148814,
2769.000,0.147682,
2768.000,0.146813,
2767.000,0.145953,
2766.000,0.144997,
2765.000,0.144038,
2764.000,0.143128,
2763.000,0.142138,
2762.000,0.140974,
2761.000,0.139862,
2760.000,0.139185,
2759.000,0.138989,
2758.000,0.138803,
2757.000,0.138107,
2756.000,0.136879,
2755.000,0.135532,
2754.000,0.134401,
2753.000,0.133481,
2752.000,0.132655,
2751.000,0.13193,
2750.000,0.131359,
2749.000,0.130831,
2748.000,0.130126,
2747.000,0.12915,
2746.000,0.128056,
2745.000,0.127094,
2744.000,0.126357,
2743.000,0.125706,
2742.000,0.125006,
2741.000,0.1244,
2740.000,0.124187,
2739.000,0.124366,
2738.000,0.124469,
2737.000,0.124009,
2736.000,0.122991,
2735.000,0.121823,
2734.000,0.120848,
2733.000,0.120221,
2732.000,0.120103,
2731.000,0.120573,
2730.000,0.121253,
2729.000,0.121434,
2728.000,0.12083,
2727.000,0.119969,
2726.000,0.119559,
2725.000,0.119639,
2724.000,0.119615,
2723.000,0.119017,
2722.000,0.11794,
2721.000,0.116804,
2720.000,0.115951,
2719.000,0.115512,
2718.000,0.115403,
2717.000,0.115353,
2716.000,0.115082,
2715.000,0.114539,
2714.000,0.113862,
2713.000,0.113163,
2712.000,0.112473,
2711.000,0.11191,
2710.000,0.111692,
2709.000,0.111902,
2708.000,0.112402,
2707.000,0.113051,
2706.000,0.113816,
2705.000,0.114529,
2704.000,0.114713,
2703.000,0.113966,
2702.000,0.112534,
2701.000,0.111277,
2700.000,0.110945,
2699.000,0.111545,
2698.000,0.112486,
2697.000,0.113217,
2696.000,0.113601,
2695.000,0.113736,
2694.000,0.113651,
2693.000,0.113307,
2692.000,0.112786,
2691.000,0.112319,
2690.000,0.112073,
2689.000,0.111993,
2688.000,0.111903,
2687.000,0.111708,
2686.000,0.111479,
2685.000,0.111344,
2684.000,0.111412,
2683.000,0.111801,
2682.000,0.112617,
2681.000,0.113746,
2680.000,0.114706,
2679.000,0.114885,
2678.000,0.114038,
2677.000,0.112549,
2676.000,0.111147,
2675.000,0.110358,
2674.000,0.110242,
2673.000,0.110528,
2672.000,0.11088,
2671.000,0.111049,
2670.000,0.110933,
2669.000,0.110611,
2668.000,0.110322,
2667.000,0.110303,
2666.000,0.11063,
2665.000,0.111228,
2664.000,0.112017,
2663.000,0.112941,
2662.000,0.113882,
2661.000,0.114584,
2660.000,0.114742,
2659.000,0.114196,
2658.000,0.113125,
2657.000,0.112051,
2656.000,0.111554,
2655.000,0.111866,
2654.000,0.112743,
2653.000,0.113748,
2652.000,0.114588,
2651.000,0.11516,
2650.000,0.115447,
2649.000,0.115541,
2648.000,0.115683,
2647.000,0.116062,
2646.000,0.116572,
2645.000,0.116886,
2644.000,0.116848,
2643.000,0.116704,
2642.000,0.116877,
2641.000,0.117534,
2640.000,0.118436,
2639.000,0.119181,
2638.000,0.119537,
2637.000,0.119549,
2636.000,0.119397,
2635.000,0.119213,
2634.000,0.119083,
2633.000,0.119174,
2632.000,0.119744,
2631.000,0.120864,
2630.000,0.122204,
2629.000,0.123256,
2628.000,0.123822,
2627.000,0.124187,
2626.000,0.12477,
2625.000,0.125657,
2624.000,0.126562,
2623.000,0.12718,
2622.000,0.127491,
2621.000,0.127731,
2620.000,0.128167,
2619.000,0.128946,
2618.000,0.13006,
2617.000,0.131319,
2616.000,0.132338,
2615.000,0.132776,
2614.000,0.132727,
2613.000,0.13279,
2612.000,0.133511,
2611.000,0.13473,
2610.000,0.135699,
2609.000,0.135928,
2608.000,0.135737,
2607.000,0.135833,
2606.000,0.136537,
2605.000,0.13761,
2604.000,0.138671,
2603.000,0.139535,
2602.000,0.14025,
2601.000,0.141088,
2600.000,0.142491,
2599.000,0.144714,
2598.000,0.147401,
2597.000,0.149718,
2596.000,0.151026,
2595.000,0.151349,
2594.000,0.151228,
2593.000,0.151299,
2592.000,0.15195,
2591.000,0.153131,
2590.000,0.154395,
2589.000,0.155357,
2588.000,0.156156,
2587.000,0.157273,
2586.000,0.158862,
2585.000,0.160584,
2584.000,0.162189,
2583.000,0.163873,
2582.000,0.165808,
2581.000,0.1677,
2580.000,0.169174,
2579.000,0.170427,
2578.000,0.172054,
2577.000,0.174271,
2576.000,0.176684,
2575.000,0.178815,
2574.000,0.180506,
2573.000,0.181808,
2572.000,0.182823,
2571.000,0.183774,
2570.000,0.184987,
2569.000,0.186666,
2568.000,0.188802,
2567.000,0.191291,
2566.000,0.193971,
2565.000,0.196527,
2564.000,0.19863,
2563.000,0.200292,
2562.000,0.201912,
2561.000,0.203899,
2560.000,0.20634,
2559.000,0.209057,
2558.000,0.211847,
2557.000,0.214616,
2556.000,0.217416,
2555.000,0.220364,
2554.000,0.223407,
2553.000,0.226206,
2552.000,0.228477,
2551.000,0.230483,
2550.000,0.232902,
2549.000,0.236102,
2548.000,0.239793,
2547.000,0.243515,
2546.000,0.2472,
2545.000,0.251045,
2544.000,0.255026,
2543.000,0.258847,
2542.000,0.262296,
2541.000,0.265453,
2540.000,0.268602,
2539.000,0.272101,
2538.000,0.276268,
2537.000,0.281219,
2536.000,0.286761,
2535.000,0.292545,
2534.000,0.298252,
2533.000,0.303615,
2532.000,0.3084,
2531.000,0.312592,
2530.000,0.316558,
2529.000,0.320858,
2528.000,0.325875,
2527.000,0.331659,
2526.000,0.338043,
2525.000,0.344767,
2524.000,0.351587,
2523.000,0.358423,
2522.000,0.365409,
2521.000,0.372693,
2520.000,0.380255,
2519.000,0.387968,
2518.000,0.39576,
2517.000,0.403599,
2516.000,0.411476,
2515.000,0.419572,
2514.000,0.428266,
2513.000,0.43775,
2512.000,0.4477,
2511.000,0.457603,
2510.000,0.467397,
2509.000,0.477491,
2508.000,0.488221,
2507.000,0.499576,
2506.000,0.51152,
2505.000,0.524224,
2504.000,0.537685,
2503.000,0.551377,
2502.000,0.564554,
2501.000,0.576913,
2500.000,0.588865,
2499.000,0.601196,
2498.000,0.614563,
2497.000,0.629131,
2496.000,0.6445,
2495.000,0.660036,
2494.000,0.675388,
2493.000,0.690722,
2492.000,0.706431,
2491.000,0.72271,
2490.000,0.73953,
2489.000,0.756826,
2488.000,0.774522,
2487.000,0.792455,
2486.000,0.81049,
2485.000,0.828737,
2484.000,0.847427,
2483.000,0.866563,
2482.000,0.885934,
2481.000,0.905515,
2480.000,0.925652,
2479.000,0.946682,
2478.000,0.968524,
2477.000,0.990828,
2476.000,1.01335,
2475.000,1.03602,
2474.000,1.05877,
2473.000,1.08138,
2472.000,1.10375,
2471.000,1.12588,
2470.000,1.14782,
2469.000,1.16968,
2468.000,1.19166,
2467.000,1.214,
2466.000,1.23672,
2465.000,1.25972,
2464.000,1.28298,
2463.000,1.30671,
2462.000,1.33106,
2461.000,1.35594,
2460.000,1.38096,
2459.000,1.40568,
2458.000,1.42984,
2457.000,1.45368,
2456.000,1.47777,
2455.000,1.50239,
2454.000,1.52697,
2453.000,1.55057,
2452.000,1.57283,
2451.000,1.59421,
2450.000,1.61528,
2449.000,1.63603,
2448.000,1.65612,
2447.000,1.67544,
2446.000,1.69407,
2445.000,1.71201,
2444.000,1.72899,
2443.000,1.74479,
2442.000,1.75918,
2441.000,1.77191,
2440.000,1.7829,
2439.000,1.79228,
2438.000,1.80036,
2437.000,1.80734,
2436.000,1.81307,
2435.000,1.81715,
2434.000,1.81901,
2433.000,1.81844,
2432.000,1.81572,
2431.000,1.81136,
2430.000,1.80566,
2429.000,1.7986,
2428.000,1.79037,
2427.000,1.78136,
2426.000,1.77179,
2425.000,1.76157,
2424.000,1.75077,
2423.000,1.73977,
2422.000,1.72886,
2421.000,1.71775,
2420.000,1.706,
2419.000,1.69348,
2418.000,1.68053,
2417.000,1.66753,
2416.000,1.65461,
2415.000,1.64162,
2414.000,1.62834,
2413.000,1.61471,
2412.000,1.60083,
2411.000,1.5867,
2410.000,1.57203,
2409.000,1.55653,
2408.000,1.54038,
2407.000,1.52405,
2406.000,1.5077,
2405.000,1.49105,
2404.000,1.47389,
2403.000,1.45645,
2402.000,1.43895,
2401.000,1.42134,
2400.000,1.40355,
2399.000,1.38593,
2398.000,1.3689,
2397.000,1.35238,
2396.000,1.33571,
2395.000,1.31829,
2394.000,1.3001,
2393.000,1.28159,
2392.000,1.26329,
2391.000,1.24542,
2390.000,1.22793,
2389.000,1.21065,
2388.000,1.19351,
2387.000,1.17652,
2386.000,1.1597,
2385.000,1.14308,
2384.000,1.12672,
2383.000,1.11065,
2382.000,1.09475,
2381.000,1.0788,
2380.000,1.06266,
2379.000,1.04644,
2378.000,1.03043,
2377.000,1.01489,
2376.000,1.00003,
2375.000,0.985832,
2374.000,0.972029,
2373.000,0.958197,
2372.000,0.943993,
2371.000,0.929343,
2370.000,0.91447,
2369.000,0.899789,
2368.000,0.885648,
2367.000,0.872022,
2366.000,0.858622,
2365.000,0.845335,
2364.000,0.832369,
2363.000,0.819855,
2362.000,0.807469,
2361.000,0.794819,
2360.000,0.781998,
2359.000,0.769349,
2358.000,0.756949,
2357.000,0.7448,
2356.000,0.733198,
2355.000,0.722412,
2354.000,0.711914,
2353.000,0.700614,
2352.000,0.68814,
2351.000,0.675351,
2350.000,0.66341,
2349.000,0.652524,
2348.000,0.642014,
2347.000,0.631252,
2346.000,0.620219,
2345.000,0.609434,
2344.000,0.599267,
2343.000,0.589511,
2342.000,0.579538,
2341.000,0.569056,
2340.000,0.558565,
2339.000,0.548683,
2338.000,0.539449,
2337.000,0.530384,
2336.000,0.521226,
2335.000,0.512128,
2334.000,0.503164,
2333.000,0.494125,
2332.000,0.485003,
2331.000,0.476234,
2330.000,0.468197,
2329.000,0.460651,
2328.000,0.453068,
2327.000,0.445302,
2326.000,0.437516,
2325.000,0.429751,
2324.000,0.421749,
2323.000,0.413392,
2322.000,0.404874,
2321.000,0.396508,
2320.000,0.388487,
2319.000,0.380847,
2318.000,0.373537,
2317.000,0.366387,
2316.000,0.359212,
2315.000,0.351948,
2314.000,0.344682,
2313.000,0.337504,
2312.000,0.330422,
2311.000,0.323459,
2310.000,0.316728,
2309.000,0.310371,
2308.000,0.304389,
2307.000,0.298607,
2306.000,0.292777,
2305.000,0.286777,
2304.000,0.280713,
2303.000,0.274871,
2302.000,0.269524,
2301.000,0.264746,
2300.000,0.260319,
2299.000,0.25582,
2298.000,0.250887,
2297.000,0.245513,
2296.000,0.24007,
2295.000,0.234937,
2294.000,0.230103,
2293.000,0.225295,
2292.000,0.2205,
2291.000,0.21617,
2290.000,0.212688,
2289.000,0.209734,
2288.000,0.20641,
2287.000,0.202119,
2286.000,0.197187,
2285.000,0.19254,
2284.000,0.188822,
2283.000,0.185928,
2282.000,0.183278,
2281.000,0.180419,
2280.000,0.177374,
2279.000,0.174471,
2278.000,0.17186,
2277.000,0.169274,
2276.000,0.166338,
2275.000,0.163056,
2274.000,0.159837,
2273.000,0.157038,
2272.000,0.154637,
2271.000,0.152452,
2270.000,0.150501,
2269.000,0.148927,
2268.000,0.147622,
2267.000,0.146168,
2266.000,0.144202,
2265.000,0.141705,
2264.000,0.138905,
2263.000,0.13608,
2262.000,0.133501,
2261.000,0.131335,
2260.000,0.129461,
2259.000,0.12754,
2258.000,0.125405,
2257.000,0.123325,
2256.000,0.121728,
2255.000,0.120709,
2254.000,0.119961,
2253.000,0.119138,
2252.000,0.118081,
2251.000,0.116757,
2250.000,0.115212,
2249.000,0.113628,
2248.000,0.112225,
2247.000,0.111038,
2246.000,0.109934,
2245.000,0.108865,
2244.000,0.107848,
2243.000,0.106682,
2242.000,0.104957,
2241.000,0.102588,
2240.000,0.100154,
2239.000,0.0984533,
2238.000,0.0977689,
2237.000,0.0977356,
2236.000,0.0978271,
2235.000,0.0977044,
2234.000,0.0971468,
2233.000,0.0959956,
2232.000,0.0943505,
2231.000,0.0926441,
2230.000,0.0913321,
2229.000,0.0905308,
2228.000,0.0900062,
2227.000,0.0894635,
2226.000,0.0888195,
2225.000,0.088265,
2224.000,0.0880786,
2223.000,0.0882652,
2222.000,0.0883482,
2221.000,0.0876882,
2220.000,0.0861305,
2219.000,0.0842198,
2218.000,0.0826546,
2217.000,0.081663,
2216.000,0.0810272,
2215.000,0.0805041,
2214.000,0.0799551,
2213.000,0.0791899,
2212.000,0.0780772,
2211.000,0.076908,
2210.000,0.0763072,
2209.000,0.0765337,
2208.000,0.0770437,
2207.000,0.0770068,
2206.000,0.0761879,
2205.000,0.0751229,
2204.000,0.0744472,
2203.000,0.0742532,
2202.000,0.074163,
2201.000,0.0738483,
2200.000,0.0733525,
2199.000,0.0729578,
2198.000,0.0728476,
2197.000,0.0728872,
2196.000,0.0727069,
2195.000,0.0720279,
2194.000,0.0708842,
2193.000,0.0695813,
2192.000,0.0685282,
2191.000,0.0680577,
2190.000,0.0682611,
2189.000,0.068851,
2188.000,0.0692274,
2187.000,0.0689008,
2186.000,0.0679208,
2185.000,0.0667861,
2184.000,0.0659405,
2183.000,0.0654986,
2182.000,0.0654232,
2181.000,0.0657028,
2180.000,0.0662024,
2179.000,0.066533,
2178.000,0.0663276,
2177.000,0.0656096,
2176.000,0.0647012,
2175.000,0.0638074,
2174.000,0.0629015,
2173.000,0.0620252,
2172.000,0.0614406,
2171.000,0.0613201,
2170.000,0.0614493,
2169.000,0.0614408,
2168.000,0.0611565,
2167.000,0.0607902,
2166.000,0.0605896,
2165.000,0.0605882,
2164.000,0.0605943,
2163.000,0.0603667,
2162.000,0.0597958,
2161.000,0.0589806,
2160.000,0.058144,
2159.000,0.0574353,
2158.000,0.0568469,
2157.000,0.0563893,
2156.000,0.0562803,
2155.000,0.0567892,
2154.000,0.0578381,
2153.000,0.0588958,
2152.000,0.0593808,
2151.000,0.0591081,
2150.000,0.0582946,
2149.000,0.0572873,
2148.000,0.0564268,
2147.000,0.0560234,
2146.000,0.0561502,
2145.000,0.0564409,
2144.000,0.0563879,
2143.000,0.0559324,
2142.000,0.0555208,
2141.000,0.0554933,
2140.000,0.0556308,
2139.000,0.0554571,
2138.000,0.0548944,
2137.000,0.0543978,
2136.000,0.0544447,
2135.000,0.0550877,
2134.000,0.0559577,
2133.000,0.0565131,
2132.000,0.0563081,
2131.000,0.0552764,
2130.000,0.053898,
2129.000,0.0529426,
2128.000,0.0528963,
2127.000,0.0536405,
2126.000,0.0546324,
2125.000,0.0552925,
2124.000,0.055297,
2123.000,0.0547077,
2122.000,0.0539186,
2121.000,0.0533831,
2120.000,0.0532878,
2119.000,0.0535182,
2118.000,0.0538992,
2117.000,0.0543168,
2116.000,0.0546116,
2115.000,0.0545582,
2114.000,0.0540943,
2113.000,0.0534642,
2112.000,0.0529969,
2111.000,0.0528246,
2110.000,0.0529159,
2109.000,0.0532134,
2108.000,0.053578,
2107.000,0.0537756,
2106.000,0.0536987,
2105.000,0.0534848,
2104.000,0.0532953,
2103.000,0.0530751,
2102.000,0.0526976,
2101.000,0.0523085,
2100.000,0.0522891,
2099.000,0.0527987,
2098.000,0.0535298,
2097.000,0.0540153,
2096.000,0.0540655,
2095.000,0.0538561,
2094.000,0.053688,
2093.000,0.0537272,
2092.000,0.0539366,
2091.000,0.0541452,
2090.000,0.0541654,
2089.000,0.0539241,
2088.000,0.0535319,
2087.000,0.0532433,
2086.000,0.0532893,
2085.000,0.0536844,
2084.000,0.0541924,
2083.000,0.0544704,
2082.000,0.0542599,
2081.000,0.0535524,
2080.000,0.0526765,
2079.000,0.0521415,
2078.000,0.052252,
2077.000,0.0528168,
2076.000,0.0533305,
2075.000,0.0535322,
2074.000,0.0536664,
2073.000,0.0541268,
2072.000,0.0549912,
2071.000,0.0559827,
2070.000,0.0567713,
2069.000,0.0571729,
2068.000,0.0571446,
2067.000,0.056789,
2066.000,0.0563616,
2065.000,0.0561071,
2064.000,0.0560346,
2063.000,0.0559593,
2062.000,0.0557923,
2061.000,0.0556483,
2060.000,0.0556321,
2059.000,0.0557058,
2058.000,0.0558233,
2057.000,0.055995,
2056.000,0.056176,
2055.000,0.0562828,
2054.000,0.0563567,
2053.000,0.0565911,
2052.000,0.0571243,
2051.000,0.0578302,
2050.000,0.0583753,
2049.000,0.0584653,
2048.000,0.0580456,
2047.000,0.0573745,
2046.000,0.0568873,
2045.000,0.0568154,
2044.000,0.0569212,
2043.000,0.0568278,
2042.000,0.056625,
2041.000,0.0568224,
2040.000,0.0575985,
2039.000,0.0584483,
2038.000,0.05886,
2037.000,0.0590561,
2036.000,0.0596372,
2035.000,0.0606274,
2034.000,0.0613496,
2033.000,0.0613429,
2032.000,0.0609818,
2031.000,0.0609695,
2030.000,0.0615394,
2029.000,0.0624161,
2028.000,0.0633368,
2027.000,0.0642513,
2026.000,0.0650467,
2025.000,0.0654283,
2024.000,0.0652417,
2023.000,0.0647401,
2022.000,0.0643634,
2021.000,0.0642997,
2020.000,0.0644032,
2019.000,0.0645568,
2018.000,0.0649238,
2017.000,0.0656764,
2016.000,0.0666306,
2015.000,0.0674164,
2014.000,0.06796,
2013.000,0.0685509,
2012.000,0.0693911,
2011.000,0.0702726,
2010.000,0.0708517,
2009.000,0.0711219,
2008.000,0.0714315,
2007.000,0.0721026,
2006.000,0.0731595,
2005.000,0.0743498,
2004.000,0.0753016,
2003.000,0.0757172,
2002.000,0.0755941,
2001.000,0.0753072,
2000.000,0.0753532,
1999.000,0.0759373,
1998.000,0.0768594,
1997.000,0.077784,
1996.000,0.07853,
1995.000,0.0791119,
1994.000,0.0796317,
1993.000,0.0801814,
1992.000,0.0807676,
1991.000,0.0812988,
1990.000,0.0817031,
1989.000,0.0820698,
1988.000,0.0826024,
1987.000,0.0834012,
1986.000,0.0843565,
1985.000,0.0852863,
1984.000,0.0861364,
1983.000,0.0870107,
1982.000,0.0880058,
1981.000,0.0890325,
1980.000,0.0898421,
1979.000,0.0902861,
1978.000,0.0905723,
1977.000,0.0911651,
1976.000,0.0923304,
1975.000,0.0938598,
1974.000,0.0953654,
1973.000,0.0967495,
1972.000,0.0981751,
1971.000,0.099612,
1970.000,0.100699,
1969.000,0.101181,
1968.000,0.101292,
1967.000,0.101565,
1966.000,0.102367,
1965.000,0.103741,
1964.000,0.10554,
1963.000,0.107552,
1962.000,0.10953,
1961.000,0.111308,
1960.000,0.11295,
1959.000,0.114657,
1958.000,0.116459,
1957.000,0.118134,
1956.000,0.119472,
1955.000,0.120544,
1954.000,0.121659,
1953.000,0.123148,
1952.000,0.125194,
1951.000,0.127756,
1950.000,0.130561,
1949.000,0.133249,
1948.000,0.13565,
1947.000,0.137848,
1946.000,0.139913,
1945.000,0.141724,
1944.000,0.143249,
1943.000,0.144873,
1942.000,0.147193,
1941.000,0.150408,
1940.000,0.154088,
1939.000,0.157709,
1938.000,0.161211,
1937.000,0.164823,
1936.000,0.168563,
1935.000,0.172168,
1934.000,0.175474,
1933.000,0.178671,
1932.000,0.182156,
1931.000,0.186208,
1930.000,0.190776,
1929.000,0.195543,
1928.000,0.200185,
1927.000,0.204538,
1926.000,0.208536,
1925.000,0.212099,
1924.000,0.215355,
1923.000,0.218878,
1922.000,0.22342,
1921.000,0.229264,
1920.000,0.23598,
1919.000,0.242995,
1918.000,0.250044,
1917.000,0.25702,
1916.000,0.263849,
1915.000,0.270593,
1914.000,0.27748,
1913.000,0.284644,
1912.000,0.291968,
1911.000,0.299426,
1910.000,0.307306,
1909.000,0.316004,
1908.000,0.325653,
1907.000,0.336039,
1906.000,0.346801,
1905.000,0.357594,
1904.000,0.368313,
1903.000,0.379232,
1902.000,0.390736,
1901.000,0.402897,
1900.000,0.415378,
1899.000,0.427827,
1898.000,0.440152,
1897.000,0.452381,
1896.000,0.464654,
1895.000,0.47744,
1894.000,0.491375,
1893.000,0.506604,
1892.000,0.522475,
1891.000,0.538221,
1890.000,0.553643,
1889.000,0.569216,
1888.000,0.585639,
1887.000,0.602952,
1886.000,0.620444,
1885.000,0.637485,
1884.000,0.65404,
1883.000,0.670519,
1882.000,0.687118,
1881.000,0.703495,
1880.000,0.719234,
1879.000,0.734325,
1878.000,0.748993,
1877.000,0.763309,
1876.000,0.777319,
1875.000,0.791267,
1874.000,0.805104,
1873.000,0.818145,
1872.000,0.829871,
1871.000,0.840787,
1870.000,0.851985,
1869.000,0.864184,
1868.000,0.878126,
1867.000,0.894989,
1866.000,0.914681,
1865.000,0.935258,
1864.000,0.954851,
1863.000,0.972701,
1862.000,0.988613,
1861.000,1.00242,
1860.000,1.01426,
1859.000,1.0248,
1858.000,1.03449,
1857.000,1.04285,
1856.000,1.04904,
1855.000,1.05284,
1854.000,1.05444,
1853.000,1.05396,
1852.000,1.05143,
1851.000,1.04674,
1850.000,1.03942,
1849.000,1.0291,
1848.000,1.01627,
1847.000,1.00229,
1846.000,0.988136,
1845.000,0.974031,
1844.000,0.960358,
1843.000,0.947803,
1842.000,0.936443,
1841.000,0.925292,
1840.000,0.912922,
1839.000,0.898508,
1838.000,0.882094,
1837.000,0.86422,
1836.000,0.845962,
1835.000,0.82835,
1834.000,0.81125,
1833.000,0.793706,
1832.000,0.77529,
1831.000,0.756601,
1830.000,0.738473,
1829.000,0.721374,
1828.000,0.705158,
1827.000,0.688852,
1826.000,0.671953,
1825.000,0.655097,
1824.000,0.639136,
1823.000,0.624199,
1822.000,0.609293,
1821.000,0.593366,
1820.000,0.576238,
1819.000,0.558299,
1818.000,0.53992,
1817.000,0.521426,
1816.000,0.503407,
1815.000,0.486261,
1814.000,0.469605,
1813.000,0.452873,
1812.000,0.436289,
1811.000,0.420788,
1810.000,0.407054,
1809.000,0.395082,
1808.000,0.384821,
1807.000,0.376571,
1806.000,0.370231,
1805.000,0.364818,
1804.000,0.35919,
1803.000,0.352982,
1802.000,0.346716,
1801.000,0.34121,
1800.000,0.336861,
1799.000,0.333103,
1798.000,0.328519,
1797.000,0.321963,
1796.000,0.313492,
1795.000,0.303818,
1794.000,0.293331,
1793.000,0.282208,
1792.000,0.271106,
1791.000,0.261163,
1790.000,0.252766,
1789.000,0.244821,
1788.000,0.236082,
1787.000,0.226402,
1786.000,0.216401,
1785.000,0.206651,
1784.000,0.197435,
1783.000,0.188751,
1782.000,0.180335,
1781.000,0.17193,
1780.000,0.163521,
1779.000,0.155253,
1778.000,0.147101,
1777.000,0.139,
1776.000,0.131149,
1775.000,0.123806,
1774.000,0.117064,
1773.000,0.111029,
1772.000,0.105971,
1771.000,0.102051,
1770.000,0.0989809,
1769.000,0.0962217,
1768.000,0.0935291,
1767.000,0.0910173,
1766.000,0.088774,
1765.000,0.0867006,
1764.000,0.0846016,
1763.000,0.082225,
1762.000,0.0793894,
1761.000,0.0763021,
1760.000,0.0734035,
1759.000,0.0707493,
1758.000,0.0680766,
1757.000,0.0654449,
1756.000,0.0631813,
1755.000,0.0611423,
1754.000,0.0586148,
1753.000,0.0552333,
1752.000,0.0516503,
1751.000,0.0489332,
1750.000,0.0473696,
1749.000,0.0463335,
1748.000,0.0451676,
1747.000,0.0436199,
1746.000,0.0416993,
1745.000,0.0396624,
1744.000,0.0380481,
1743.000,0.0372679,
1742.000,0.0370761,
1741.000,0.0366881,
1740.000,0.0355168,
1739.000,0.0336719,
1738.000,0.0317016,
1737.000,0.0300191,
1736.000,0.0286719,
1735.000,0.0275311,
1734.000,0.026399,
1733.000,0.0251017,
1732.000,0.0237062,
1731.000,0.0223232,
1730.000,0.0208968,
1729.000,0.0194515,
1728.000,0.0181792,
1727.000,0.0171151,
1726.000,0.0159661,
1725.000,0.0143494,
1724.000,0.0120709,
1723.000,0.00919423,
1722.000,0.00609519,
1721.000,0.00346627,
1720.000,0.00181411,
1719.000,0.00107686,
1718.000,0.000761535,
1717.000,0.000671802,
1716.000,0.000905133,
1715.000,0.00127372,
1714.000,0.00169721,
1713.000,0.00200364,
1712.000,0.00198475,
1711.000,0.00179079,
1710.000,0.00160091,
1709.000,0.00153302,
1708.000,0.00185067,
1707.000,0.00283728,
1706.000,0.00437223,
1705.000,0.00591612,
1704.000,0.00698657,
1703.000,0.00762464,
1702.000,0.00857382,
1701.000,0.0113988,
1700.000,0.0174149,
1699.000,0.0257033,
1698.000,0.0346957,
1697.000,0.0453951,
1696.000,0.060568,
1695.000,0.0816212,
1694.000,0.107282,
1693.000,0.135923,
1692.000,0.167462,
1691.000,0.201434,
1690.000,0.235593,
1689.000,0.266664,
1688.000,0.291346,
1687.000,0.307206,
1686.000,0.313707,
1685.000,0.313233,
1684.000,0.308888,
1683.000,0.302793,
1682.000,0.29537,
1681.000,0.285234,
1680.000,0.272842,
1679.000,0.260268,
1678.000,0.248995,
1677.000,0.239607,
1676.000,0.232482,
1675.000,0.227945,
1674.000,0.224863,
1673.000,0.221402,
1672.000,0.216893,
1671.000,0.211843,
1670.000,0.206953,
1669.000,0.202654,
1668.000,0.198888,
1667.000,0.195096,
1666.000,0.190841,
1665.000,0.186102,
1664.000,0.181,
1663.000,0.175438,
1662.000,0.169051,
1661.000,0.161903,
1660.000,0.154594,
1659.000,0.147555,
1658.000,0.140634,
1657.000,0.133456,
1656.000,0.125811,
1655.000,0.117894,
1654.000,0.110352,
1653.000,0.104016,
1652.000,0.0996248,
1651.000,0.096931,
1650.000,0.0953357,
1649.000,0.0941871,
1648.000,0.0924003,
1647.000,0.0899344,
1646.000,0.0874153,
1645.000,0.0847787,
1644.000,0.0817522,
1643.000,0.078891,
1642.000,0.0767989,
1641.000,0.075278,
1640.000,0.0739309,
1639.000,0.0725636,
1638.000,0.0709729,
1637.000,0.0688297,
1636.000,0.0661207,
1635.000,0.0636206,
1634.000,0.0621542,
1633.000,0.0616276,
1632.000,0.0616276,
1631.000,0.061951,
1630.000,0.0624762,
1629.000,0.062929,
1628.000,0.0627705,
1627.000,0.0616394,
1626.000,0.0597383,
1625.000,0.0576577,
1624.000,0.0559368,
1623.000,0.0547391,
1622.000,0.0537862,
1621.000,0.0526719,
1620.000,0.0513061,
1619.000,0.0498901,
1618.000,0.0486312,
1617.000,0.0478049,
1616.000,0.0476965,
1615.000,0.0482181,
1614.000,0.0488782,
1613.000,0.0490569,
1612.000,0.0482996,
1611.000,0.0467223,
1610.000,0.0450477,
1609.000,0.0440394,
1608.000,0.0439508,
1607.000,0.0444403,
1606.000,0.0448734,
1605.000,0.0447482,
1604.000,0.0439978,
1603.000,0.0429532,
1602.000,0.0419707,
1601.000,0.041152,
1600.000,0.0403784,
1599.000,0.039446,
1598.000,0.0383492,
1597.000,0.0374385,
1596.000,0.0370645,
1595.000,0.0371604,
1594.000,0.0373166,
1593.000,0.0372095,
1592.000,0.0368064,
1591.000,0.0361607,
1590.000,0.0352777,
1589.000,0.0343548,
1588.000,0.0338632,
1587.000,0.0340518,
1586.000,0.0345654,
1585.000,0.0348451,
1584.000,0.0347086,
1583.000,0.0343246,
1582.000,0.0338075,
1581.000,0.033103,
1580.000,0.0322846,
1579.000,0.0316668,
1578.000,0.0314249,
1577.000,0.0313642,
1576.000,0.0311977,
1575.000,0.0308329,
1574.000,0.0303484,
1573.000,0.0298874,
1572.000,0.0296034,
1571.000,0.029623,
1570.000,0.0299085,
1569.000,0.0302103,
1568.000,0.0302734,
1567.000,0.0298932,
1566.000,0.0290202,
1565.000,0.0279987,
1564.000,0.0274106,
1563.000,0.0274206,
1562.000,0.0275241,
1561.000,0.0271274,
1560.000,0.026374,
1559.000,0.0258406,
1558.000,0.0260921,
1557.000,0.0272124,
1556.000,0.0284779,
1555.000,0.0293269,
1554.000,0.02936,
1553.000,0.0284476,
1552.000,0.0271466,
1551.000,0.0261813,
1550.000,0.0257558,
1549.000,0.0255002,
1548.000,0.0250951,
1547.000,0.0245843,
1546.000,0.024056,
1545.000,0.0232793,
1544.000,0.0220513,
1543.000,0.0207599,
1542.000,0.0201694,
1541.000,0.0207468,
1540.000,0.0222127,
1539.000,0.0237224,
1538.000,0.0244859,
1537.000,0.0244196,
1536.000,0.0240638,
1535.000,0.0237583,
1534.000,0.0234523,
1533.000,0.0230244,
1532.000,0.0226043,
1531.000,0.0225998,
1530.000,0.0232405,
1529.000,0.0242148,
1528.000,0.0248341,
1527.000,0.0245625,
1526.000,0.0234268,
1525.000,0.0219935,
1524.000,0.0209038,
1523.000,0.0204199,
1522.000,0.0203567,
1521.000,0.0203248,
1520.000,0.0201661,
1519.000,0.0200905,
1518.000,0.0203619,
1517.000,0.0210204,
1516.000,0.021862,
1515.000,0.0225562,
1514.000,0.0227954,
1513.000,0.0225259,
1512.000,0.0220697,
1511.000,0.021841,
1510.000,0.0218668,
1509.000,0.0217432,
1508.000,0.0212182,
1507.000,0.0206675,
1506.000,0.0208801,
1505.000,0.0217736,
1504.000,0.0223359,
1503.000,0.022275,
1502.000,0.02196,
1501.000,0.0217108,
1500.000,0.0215951,
1499.000,0.0212937,
1498.000,0.0205207,
1497.000,0.0196003,
1496.000,0.0193615,
1495.000,0.020215,
1494.000,0.0217079,
1493.000,0.0231416,
1492.000,0.0241173,
1491.000,0.0244607,
1490.000,0.0241271,
1489.000,0.0234176,
1488.000,0.022869,
1487.000,0.0227246,
1486.000,0.0227564,
1485.000,0.0225459,
1484.000,0.0219253,
1483.000,0.0211731,
1482.000,0.0207332,
1481.000,0.0208456,
1480.000,0.0213593,
1479.000,0.0217571,
1478.000,0.0215776,
1477.000,0.020958,
1476.000,0.0205518,
1475.000,0.020753,
1474.000,0.0212964,
1473.000,0.021813,
1472.000,0.0223717,
1471.000,0.023096,
1470.000,0.0236448,
1469.000,0.023564,
1468.000,0.0228241,
1467.000,0.0217863,
1466.000,0.0208043,
1465.000,0.0200727,
1464.000,0.0199503,
1463.000,0.0206044,
1462.000,0.0213891,
1461.000,0.0216081,
1460.000,0.0213304,
1459.000,0.0210758,
1458.000,0.0211546,
1457.000,0.0213919,
1456.000,0.0213915,
1455.000,0.0209671,
1454.000,0.0202784,
1453.000,0.0193834,
1452.000,0.0182824,
1451.000,0.0174911,
1450.000,0.0174505,
1449.000,0.0177503,
1448.000,0.0179674,
1447.000,0.0185054,
1446.000,0.019841,
1445.000,0.0215462,
1444.000,0.0226261,
1443.000,0.0226102,
1442.000,0.0219632,
1441.000,0.0215398,
1440.000,0.0217672,
1439.000,0.0222832,
1438.000,0.0223504,
1437.000,0.0215884,
1436.000,0.0204595,
1435.000,0.0198786,
1434.000,0.0201754,
1433.000,0.0209606,
1432.000,0.0218192,
1431.000,0.0225964,
1430.000,0.0231404,
1429.000,0.0231625,
1428.000,0.0225396,
1427.000,0.0215559,
1426.000,0.0207077,
1425.000,0.0203536,
1424.000,0.0205419,
1423.000,0.0210042,
1422.000,0.0213606,
1421.000,0.021482,
1420.000,0.0215227,
1419.000,0.0215529,
1418.000,0.0214509,
1417.000,0.0212186,
1416.000,0.0211786,
1415.000,0.0217194,
1414.000,0.022771,
1413.000,0.023694,
1412.000,0.0238679,
1411.000,0.0232811,
1410.000,0.0224641,
1409.000,0.0220077,
1408.000,0.0222148,
1407.000,0.0229456,
1406.000,0.0236132,
1405.000,0.0236624,
1404.000,0.0231711,
1403.000,0.0227221,
1402.000,0.0227672,
1401.000,0.0232611,
1400.000,0.0239051,
1399.000,0.0245424,
1398.000,0.025123,
1397.000,0.0255758,
1396.000,0.025976,
1395.000,0.0265289,
1394.000,0.0271276,
1393.000,0.0273012,
1392.000,0.0269237,
1391.000,0.0265293,
1390.000,0.0265789,
1389.000,0.0268065,
1388.000,0.0266315,
1387.000,0.0259993,
1386.000,0.0253673,
1385.000,0.0249892,
1384.000,0.0247778,
1383.000,0.0247815,
1382.000,0.0252262,
1381.000,0.0260724,
1380.000,0.02699,
1379.000,0.027788,
1378.000,0.0284968,
1377.000,0.0290321,
1376.000,0.0291651,
1375.000,0.0288964,
1374.000,0.0285989,
1373.000,0.028646,
1372.000,0.0290779,
1371.000,0.0298099,
1370.000,0.0309027,
1369.000,0.0323538,
1368.000,0.0338692,
1367.000,0.0351284,
1366.000,0.0361325,
1365.000,0.0370867,
1364.000,0.0380025,
1363.000,0.0386162,
1362.000,0.038758,
1361.000,0.0386007,
1360.000,0.0384691,
1359.000,0.0385894,
1358.000,0.0390522,
1357.000,0.0398216,
1356.000,0.0407234,
1355.000,0.0415642,
1354.000,0.0423064,
1353.000,0.0429901,
1352.000,0.043462,
1351.000,0.0433561,
1350.000,0.0423829,
1349.000,0.040571,
1348.000,0.0382557,
1347.000,0.0358704,
1346.000,0.0338737,
1345.000,0.0327994,
1344.000,0.0329227,
1343.000,0.0338515,
1342.000,0.0347652,
1341.000,0.0350561,
1340.000,0.0346353,
1339.000,0.0337151,
1338.000,0.0325959,
1337.000,0.0317566,
1336.000,0.031784,
1335.000,0.0328169,
1334.000,0.0342436,
1333.000,0.0353463,
1332.000,0.0360652,
1331.000,0.0368542,
1330.000,0.0379877,
1329.000,0.0393305,
1328.000,0.0407712,
1327.000,0.0424329,
1326.000,0.044314,
1325.000,0.0461991,
1324.000,0.0478753,
1323.000,0.0491663,
1322.000,0.0499539,
1321.000,0.0502989,
1320.000,0.0504658,
1319.000,0.0505968,
1318.000,0.0503641,
1317.000,0.0491745,
1316.000,0.0467856,
1315.000,0.0435022,
1314.000,0.0397518,
1313.000,0.0358334,
1312.000,0.0321546,
1311.000,0.0293437,
1310.000,0.0278338,
1309.000,0.0274877,
1308.000,0.0278734,
1307.000,0.0287602,
1306.000,0.0300791,
1305.000,0.0315724,
1304.000,0.0327992,
1303.000,0.0335496,
1302.000,0.0341552,
1301.000,0.0352824,
1300.000,0.0374139,
1299.000,0.0404276,
1298.000,0.0435672,
1297.000,0.045977,
1296.000,0.0474377,
1295.000,0.0485266,
1294.000,0.0499874,
1293.000,0.0519879,
1292.000,0.0540578,
1291.000,0.0556837,
1290.000,0.0568353,
1289.000,0.0580003,
1288.000,0.0598127,
1287.000,0.062479,
1286.000,0.0654379,
1285.000,0.0677489,
1284.000,0.0690765,
1283.000,0.0702042,
1282.000,0.0722617,
1281.000,0.0754856,
1280.000,0.0789421,
1279.000,0.0814522,
1278.000,0.082624,
1277.000,0.0829137,
1276.000,0.0829923,
1275.000,0.0833522,
1274.000,0.0843037,
1273.000,0.0860274,
1272.000,0.0885295,
1271.000,0.0915379,
1270.000,0.0944893,
1269.000,0.096722,
1268.000,0.0978659,
1267.000,0.0981813,
1266.000,0.0984278,
1265.000,0.0992452,
1264.000,0.100714,
1263.000,0.102657,
1262.000,0.105277,
1261.000,0.109178,
1260.000,0.114752,
1259.000,0.121783,
1258.000,0.129652,
1257.000,0.137743,
1256.000,0.145538,
1255.000,0.152602,
1254.000,0.158853,
1253.000,0.164667,
1252.000,0.170469,
1251.000,0.176259,
1250.000,0.18179,
1249.000,0.187112,
1248.000,0.192621,
1247.000,0.19855,
1246.000,0.204656,
1245.000,0.210458,
1244.000,0.215448,
1243.000,0.219081,
1242.000,0.220906,
1241.000,0.220879,
1240.000,0.219392,
1239.000,0.216798,
1238.000,0.213179,
1237.000,0.208641,
1236.000,0.2034,
1235.000,0.197284,
1234.000,0.189214,
1233.000,0.177859,
1232.000,0.163074,
1231.000,0.146323,
1230.000,0.129474,
1229.000,0.113368,
1228.000,0.0979145,
1227.000,0.0832403,
1226.000,0.0700758,
1225.000,0.0589277,
1224.000,0.0496029,
1223.000,0.0419858,
1222.000,0.0366072,
1221.000,0.034133,
1220.000,0.0347349,
1219.000,0.0380536,
1218.000,0.0434546,
1217.000,0.0505194,
1216.000,0.0593305,
1215.000,0.0699232,
1214.000,0.0817488,
1213.000,0.0939468,
1212.000,0.106116,
1211.000,0.118754,
1210.000,0.132634,
1209.000,0.147804,
1208.000,0.163464,
1207.000,0.178818,
1206.000,0.193717,
1205.000,0.208253,
1204.000,0.222177,
1203.000,0.235194,
1202.000,0.247543,
1201.000,0.259594,
1200.000,0.271008,
1199.000,0.280916,
1198.000,0.28885,
1197.000,0.294947,
1196.000,0.299167,
1195.000,0.301209,
1194.000,0.301435,
1193.000,0.300831,
1192.000,0.299705,
1191.000,0.297223,
1190.000,0.292892,
1189.000,0.287777,
1188.000,0.283411,
1187.000,0.280037,
1186.000,0.276678,
1185.000,0.272571,
1184.000,0.267717,
1183.000,0.262211,
1182.000,0.256004,
1181.000,0.249455,
1180.000,0.243423,
1179.000,0.238566,
1178.000,0.234844,
1177.000,0.231724,
1176.000,0.228481,
1175.000,0.224422,
1174.000,0.219347,
1173.000,0.213815,
1172.000,0.208485,
1171.000,0.203132,
1170.000,0.196787,
1169.000,0.188972,
1168.000,0.180447,
1167.000,0.172603,
1166.000,0.166372,
1165.000,0.161679,
1164.000,0.157597,
1163.000,0.153055,
1162.000,0.147684,
1161.000,0.141932,
1160.000,0.136203,
1159.000,0.130254,
1158.000,0.124019,
1157.000,0.118411,
1156.000,0.114345,
1155.000,0.111214,
1154.000,0.107207,
1153.000,0.101416,
1152.000,0.0949101,
1151.000,0.0893242,
1150.000,0.0852486,
1149.000,0.082338,
1148.000,0.0801258,
1147.000,0.078083,
1146.000,0.0755366,
1145.000,0.0722665,
1144.000,0.068787,
1143.000,0.0655704,
1142.000,0.0623832,
1141.000,0.0587514,
1140.000,0.0546933,
1139.000,0.0506474,
1138.000,0.0469361,
1137.000,0.0438098,
1136.000,0.0417528,
1135.000,0.040779,
1134.000,0.0398719,
1133.000,0.0381083,
1132.000,0.0357225,
1131.000,0.0333855,
1130.000,0.0309902,
1129.000,0.0279923,
1128.000,0.0247269,
1127.000,0.0223877,
1126.000,0.0212638,
1125.000,0.0200245,
1124.000,0.0177585,
1123.000,0.0153511,
1122.000,0.014047,
1121.000,0.0137041,
1120.000,0.0133565,
1119.000,0.013111,
1118.000,0.0141717,
1117.000,0.0172219,
1116.000,0.0220127,
1115.000,0.0276694,
1114.000,0.0330412,
1113.000,0.0374496,
1112.000,0.040728,
1111.000,0.042531,
1110.000,0.0421854,
1109.000,0.0395422,
1108.000,0.0356027,
1107.000,0.0318288,
1106.000,0.029083,
1105.000,0.0273672,
1104.000,0.0262734,
1103.000,0.0254047,
1102.000,0.0245494,
1101.000,0.0238109,
1100.000,0.0234552,
1099.000,0.0234113,
1098.000,0.0231865,
1097.000,0.0225371,
1096.000,0.0217744,
1095.000,0.0210214,
1094.000,0.0197592,
1093.000,0.0177844,
1092.000,0.016105,
1091.000,0.0158774,
1090.000,0.016623,
1089.000,0.0166743,
1088.000,0.0153798,
1087.000,0.0135262,
1086.000,0.0120587,
1085.000,0.0118715,
1084.000,0.0126331,
1083.000,0.0130181,
1082.000,0.0132336,
1081.000,0.0132461,
1080.000,0.0126477,
1079.000,0.0128329,
1078.000,0.0137046,
1077.000,0.0131738,
1076.000,0.0114877,
1075.000,0.0105038,
1074.000,0.0107666,
1073.000,0.0119997,
1072.000,0.0133276,
1071.000,0.0136961,
1070.000,0.0130226,
1069.000,0.0119175,
1068.000,0.0111621,
1067.000,0.0112942,
1066.000,0.0121651,
1065.000,0.0132092,
1064.000,0.0142197,
1063.000,0.0152945,
1062.000,0.0159385,
1061.000,0.0151276,
1060.000,0.0126815,
1059.000,0.00937737,
1058.000,0.00640686,
1057.000,0.00472152,
1056.000,0.00399131,
1055.000,0.00412844,
1054.000,0.00503997,
1053.000,0.00623147,
1052.000,0.00725035,
1051.000,0.00766742,
1050.000,0.00801699,
1049.000,0.0082571,
1048.000,0.007615,
1047.000,0.00664396,
1046.000,0.00645052,
1045.000,0.00714281,
1044.000,0.00771856,
1043.000,0.00727834,
1042.000,0.00606828,
1041.000,0.00503475,
1040.000,0.0048423,
1039.000,0.00560153,
1038.000,0.00674177,
1037.000,0.00708704,
1036.000,0.0060256,
1035.000,0.00441754,
1034.000,0.00421025,
1033.000,0.00558714,
1032.000,0.00652862,
1031.000,0.00615798,
1030.000,0.00549723,
1029.000,0.00566547,
1028.000,0.0063193,
1027.000,0.00735003,
1026.000,0.00830045,
1025.000,0.00765322,
1024.000,0.00588599,
1023.000,0.00492714,
1022.000,0.00406402,
1021.000,0.00183212,
1020.000,0.00114432,
1019.000,0.00378232,
1018.000,0.00617455,
1017.000,0.00780207,
1016.000,0.00877567,
1015.000,0.00896379,
1014.000,0.00830998,
1013.000,0.00686038,
1012.000,0.00553399,
1011.000,0.00488376,
1010.000,0.00481009,
1009.000,0.00525234,
1008.000,0.00607669,
1007.000,0.00674753,
1006.000,0.00665367,
1005.000,0.00613362,
1004.000,0.00614171,
1003.000,0.0069515,
1002.000,0.0077139,
1001.000,0.00751892,
1000.000,0.00605342,
999.000,0.00402169,
998.000,0.00196182,
997.000,0.000391688,
996.000,0.00138576,
995.000,0.00230168,
994.000,0.00210087,
993.000,0.00244516,
992.000,0.00361791,
991.000,0.00480585,
990.000,0.00598314,
989.000,0.00718196,
988.000,0.00774581,
987.000,0.00754873,
986.000,0.00729915,
985.000,0.00709612,
984.000,0.00671131,
983.000,0.00598955,
982.000,0.00490843,
981.000,0.00278464,
980.000,0.000611394,
979.000,0.00147741,
978.000,0.00182125,
977.000,0.00122934,
976.000,0.00167528,
975.000,0.00319641,
974.000,0.00367774,
973.000,0.0025775,
972.000,0.00249231,
971.000,0.00337568,
970.000,0.00343478,
969.000,0.00312718,
968.000,0.003469,
967.000,0.0043727,
966.000,0.00475348,
965.000,0.00400834,
964.000,0.00277783,
963.000,0.00242166,
962.000,0.00373164,
961.000,0.00610857,
960.000,0.0080959,
959.000,0.00859739,
958.000,0.00736604,
957.000,0.00514732,
956.000,0.00251419,
955.000,0.000676258,
954.000,0.00169177,
953.000,0.0027044,
952.000,0.00282407,
951.000,0.0028049,
950.000,0.00301223,
949.000,0.00282555,
948.000,0.00222078,
947.000,0.00243968,
946.000,0.00284807,
945.000,0.00385359,
944.000,0.00547395,
943.000,0.00585229,
942.000,0.00469869,
941.000,0.00334535,
940.000,0.00281239,
939.000,0.00255453,
938.000,0.00203731,
937.000,0.00146973,
936.000,0.000843898,
935.000,0.000742028,
934.000,0.00190216,
933.000,0.0028587,
932.000,0.00314036,
931.000,0.00273447,
930.000,0.00160591,
929.000,0.00127221,
928.000,0.00194341,
927.000,0.00213191,
926.000,0.00232371,
925.000,0.00245286,
924.000,0.00215368,
923.000,0.00203666,
922.000,0.00226805,
921.000,0.00279916,
920.000,0.00368875,
919.000,0.00454346,
918.000,0.00485919,
917.000,0.00513039,
916.000,0.00627601,
915.000,0.0072145,
914.000,0.00676006,
913.000,0.00481484,
912.000,0.0025541,
911.000,0.00277551,
910.000,0.00386288,
909.000,0.00401341,
908.000,0.00470208,
907.000,0.00552601,
906.000,0.00527765,
905.000,0.00446288,
904.000,0.00370667,
903.000,0.0026736,
902.000,0.00147399,
901.000,0.000527195,
900.000,0.000477648,
899.000,0.00242741,
898.000,0.00489257,
897.000,0.00689891,
896.000,0.00741476,
895.000,0.00584242,
894.000,0.00314763,
893.000,0.00178308,
892.000,0.00209268,
891.000,0.00240736,
890.000,0.0040326,
889.000,0.00655637,
888.000,0.00784473,
887.000,0.0075099,
886.000,0.00650891,
885.000,0.00553256,
884.000,0.00324115,
883.000,0.00195822,
882.000,0.00549074,
881.000,0.00733845,
880.000,0.00622972,
879.000,0.00414992,
878.000,0.00347925,
877.000,0.00476724,
876.000,0.0055544,
875.000,0.00501162,
874.000,0.00398343,
873.000,0.00405366,
872.000,0.00646638,
871.000,0.00909687,
870.000,0.00957489,
869.000,0.00773845,
868.000,0.00513681,
867.000,0.00346199,
866.000,0.00301953,
865.000,0.00216689,
864.000,0.000891158,
863.000,0.00232982,
862.000,0.00394524,
861.000,0.00380506,
860.000,0.00245899,
859.000,0.00150139,
858.000,0.00208846,
857.000,0.00314312,
856.000,0.00413486,
855.000,0.00507614,
854.000,0.00565957,
853.000,0.0054731,
852.000,0.00453333,
851.000,0.00276869,
850.000,0.000764165,
849.000,0.000724374,
848.000,0.00210599,
847.000,0.00417791,
846.000,0.00591004,
845.000,0.00607144,
844.000,0.00435726,
843.000,0.00148969,
842.000,0.00122411,
841.000,0.00318577,
840.000,0.00394862,
839.000,0.00398368,
838.000,0.00387584,
837.000,0.003662,
836.000,0.00476027,
835.000,0.00683929,
834.000,0.00763033,
833.000,0.00648434,
832.000,0.00436545,
831.000,0.00265931,
830.000,0.00320458,
829.000,0.0058098,
828.000,0.00772958,
827.000,0.0073321,
826.000,0.00539024,
825.000,0.004657,
824.000,0.00418198,
823.000,0.00189219,
822.000,0.00214786,
821.000,0.004688,
820.000,0.00575677,
819.000,0.00532477,
818.000,0.00454822,
817.000,0.00484479,
816.000,0.00650878,
815.000,0.00815054,
814.000,0.00786551,
813.000,0.00554659,
812.000,0.00266155,
811.000,0.00131506,
810.000,0.00186396,
809.000,0.00152798,
808.000,0.00268786,
807.000,0.004687,
806.000,0.00395831,
805.000,0.00220853,
804.000,0.00373098,
803.000,0.00594058,
802.000,0.00740332,
801.000,0.00774042,
800.000,0.00662019,
799.000,0.00527555,
798.000,0.00540604,
797.000,0.0074244,
796.000,0.010449,
795.000,0.0124373,
794.000,0.012228,
793.000,0.010319,
792.000,0.00769534,
791.000,0.00629788,
790.000,0.00741579,
789.000,0.00898669,
788.000,0.00909834,
787.000,0.00728173,
786.000,0.00384585,
785.000,0.00181865,
784.000,0.00384763,
783.000,0.0049908,
782.000,0.00488572,
781.000,0.0056599,
780.000,0.00694735,
779.000,0.00668644,
778.000,0.00464534,
777.000,0.00301692,
776.000,0.00312019,
775.000,0.00326953,
774.000,0.00290597,
773.000,0.00299067,
772.000,0.00354258,
771.000,0.0039675,
770.000,0.00442473,
769.000,0.00471983,
768.000,0.00521998,
767.000,0.00640848,
766.000,0.00680617,
765.000,0.00566437,
764.000,0.00440358,
763.000,0.00332053,
762.000,0.00233342,
761.000,0.00394639,
760.000,0.00601647,
759.000,0.00613709,
758.000,0.00463867,
757.000,0.00306592,
756.000,0.003145,
755.000,0.00499779,
754.000,0.00647258,
753.000,0.00698582,
752.000,0.00752551,
751.000,0.00794763,
750.000,0.00741954,
749.000,0.00596608,
748.000,0.00456365,
747.000,0.00444265,
746.000,0.00464879,
745.000,0.00354581,
744.000,0.00229119,
743.000,0.00142035,
742.000,0.00188069,
741.000,0.00512952,
740.000,0.00638927,
739.000,0.00545714,
738.000,0.0057598,
737.000,0.00747916,
736.000,0.00781729,
735.000,0.00576709,
734.000,0.00274411,
733.000,0.00107813,
732.000,0.000611399,
731.000,0.00123118,
730.000,0.00328865,
729.000,0.00352374,
728.000,0.00118508,
727.000,0.00391873,
726.000,0.00806845,
725.000,0.00959324,
724.000,0.00827925,
723.000,0.00586609,
722.000,0.00461538,
721.000,0.00431848,
720.000,0.00426836,
719.000,0.00451824,
718.000,0.00499302,
717.000,0.00530611,
716.000,0.00506971,
715.000,0.00438884,
714.000,0.00380508,
713.000,0.00320385,
712.000,0.00228247,
711.000,0.00250561,
710.000,0.00390052,
709.000,0.004498,
708.000,0.00483558,
707.000,0.00611103,
706.000,0.0065798,
705.000,0.00456775,
704.000,0.0014693,
703.000,0.00202979,
702.000,0.0035034,
701.000,0.00447681,
700.000,0.00585834,
699.000,0.00655439,
698.000,0.00565023,
697.000,0.00443644,
696.000,0.00451029,
695.000,0.00504541,
694.000,0.00362428,
693.000,0.00113216,
692.000,0.00554582,
691.000,0.00933505,
690.000,0.0102251,
689.000,0.00926677,
688.000,0.00805528,
687.000,0.00741668,
686.000,0.00676327,
685.000,0.00563414,
684.000,0.00410395,
683.000,0.00262918,
682.000,0.00284465,
681.000,0.00475922,
680.000,0.00586853,
679.000,0.00615772,
678.000,0.00688353,
677.000,0.00859,
676.000,0.0100559,
675.000,0.00954808,
674.000,0.00596568,
673.000,0.00254469,
672.000,0.00566649,
671.000,0.00819387,
670.000,0.00903312,
669.000,0.00865197,
668.000,0.00545144,
667.000,0.00274127,
666.000,0.00540563,
665.000,0.00771406,
664.000,0.00890464,
663.000,0.00873838,
662.000,0.00597693,
661.000,0.00212135,
660.000,0.00249747,
659.000,0.00444192,
658.000,0.00546114,
657.000,0.00543048,
656.000,0.00402215,
655.000,0.00298278,
654.000,0.00312823,
653.000,0.00508281,
652.000,0.00830123,
651.000,0.00957415,
650.000,0.00944301,
649.000,0.00973697,
648.000,0.00915039,
647.000,0.00622492,
646.000,0.00197968,
645.000,0.00127233,
644.000,0.00360974,
643.000,0.00433797,
642.000,0.00345185,
641.000,0.00167609,
640.000,0.00159039,
639.000,0.00398134,
638.000,0.00608094,
637.000,0.00710161,
636.000,0.00677499,
635.000,0.00538048,
634.000,0.00385996,
633.000,0.00368871,
632.000,0.00562011,
631.000,0.00815748,
630.000,0.00924926,
629.000,0.00777,
628.000,0.00759219,
627.000,0.0119412,
626.000,0.0145053,
625.000,0.012123,
624.000,0.00767225,
623.000,0.00649461,
622.000,0.0071572,
621.000,0.00804294,
620.000,0.00899817,
619.000,0.00862222,
618.000,0.00750295,
617.000,0.00700814,
616.000,0.00854804,
615.000,0.0117513,
614.000,0.0131913,
613.000,0.0113963,
612.000,0.00652445,
611.000,0.000909496,
610.000,0.00789317,
609.000,0.0132416,
608.000,0.015249,
607.000,0.0146692,
606.000,0.012822,
605.000,0.0108016,
604.000,0.00694256,
603.000,0.00252802,
602.000,0.00595707,
601.000,0.0100487,
600.000,0.012614,
599.000,0.0132105,
598.000,0.0104493,
597.000,0.00764825,
596.000,0.00902413,
595.000,0.0123714,
594.000,0.0152978,
593.000,0.016466,
592.000,0.0146863,
591.000,0.0103359,
590.000,0.00669936,
589.000,0.00690117,
588.000,0.0100828,
587.000,0.0134632,
586.000,0.0146006,
585.000,0.0130187,
584.000,0.00929168,
583.000,0.00497655,
582.000,0.00248553,
581.000,0.00264596,
580.000,0.00441198,
579.000,0.00481983,
578.000,0.00362882,
577.000,0.00401637,
576.000,0.00654832,
575.000,0.0103899,
574.000,0.0142434,
573.000,0.015391,
572.000,0.0135611,
571.000,0.0122846,
570.000,0.0126104,
569.000,0.0119597,
568.000,0.00937358,
567.000,0.00646413,
566.000,0.00757227,
565.000,0.0106185,
564.000,0.0113275,
563.000,0.0102864,
562.000,0.00917674,
561.000,0.0076538,
560.000,0.0063912,
559.000,0.00822712,
558.000,0.0107698,
557.000,0.00957179,
556.000,0.00464298,
555.000,0.000689088,
554.000,0.0017994,
553.000,0.00349341,
552.000,0.00580985,
551.000,0.00832036,
550.000,0.0119589,
549.000,0.0146457,
548.000,0.0149282,
547.000,0.0122688,
546.000,0.00751774,
545.000,0.0041889,
544.000,0.00551633,
543.000,0.00814795,
542.000,0.00913338,
541.000,0.00761495,
540.000,0.00498378,
539.000,0.00481719,
538.000,0.00833629,
537.000,0.013453,
536.000,0.0165563,
535.000,0.0161757,
534.000,0.0107525,
533.000,0.000840119,
532.000,0.00954864,
531.000,0.0139659,
530.000,0.0133636,
529.000,0.0116825,
528.000,0.00992936,
527.000,0.00762161,
526.000,0.00575895,
525.000,0.0061817,
524.000,0.00738408,
523.000,0.00546566,
522.000,0.00525514,
521.000,0.0103384,
520.000,0.00661581,
519.000,0.00702366,
518.000,0.0252716,
517.000,0.035163,
516.000,0.0344769,
515.000,0.0271698,
514.000,0.0215797,
513.000,0.0266138,
512.000,0.0345786,
511.000,0.0354412,
510.000,0.0258308,
509.000,0.0102811,
508.000,0.00630503,
507.000,0.0215284,
506.000,0.0392751,
505.000,0.0523648,
504.000,0.0550305,
503.000,0.0456859,
502.000,0.0263776,
501.000,0.007139,
500.000,0.0128373,
499.000,0.0197978,
498.000,0.0210025,
497.000,0.0257384,
496.000,0.0337446,
495.000,0.0357138,
494.000,0.0286358,
493.000,0.0163777,
492.000,0.00649167,
491.000,0.00769829,
490.000,0.0109182,
489.000,0.0171268,
488.000,0.0230671,
487.000,0.0213768,
486.000,0.0164526,
485.000,0.0201712,
484.000,0.0280078,
483.000,0.0276445,
482.000,0.0154785,
481.000,0.0112562,
480.000,0.0236291,
479.000,0.02723,
478.000,0.0260472,
477.000,0.0298064,
476.000,0.0338172,
475.000,0.0274424,
474.000,0.0130402,
473.000,0.00979108,
472.000,0.00927763,
471.000,0.00535847,
470.000,0.0305527,
469.000,0.05659,
468.000,0.0722562,
467.000,0.0672187,
466.000,0.0420462,
465.000,0.0275466,
464.000,0.0387483,
463.000,0.0410278,
462.000,0.0362843,
461.000,0.035722,
460.000,0.0355613,
459.000,0.0332281,
458.000,0.0284134,
457.000,0.022714,
456.000,0.0238875,
455.000,0.0253373,
454.000,0.0155782,
453.000,0.00633317,
452.000,0.0247568,
451.000,0.0368185,
450.000,0.0371935,
449.000,0.0288355,
448.000,0.0172566,
447.000,0.0113734,
446.000,0.020005,
445.000,0.0323456,
444.000,0.0453945,
443.000,0.0538097,
442.000,0.0494698,
441.000,0.0334471,
440.000,0.0228506,
439.000,0.0304958,
438.000,0.0466557,
437.000,0.0621953,
436.000,0.0712322,
435.000,0.0764568,
434.000,0.0810738,
433.000,0.0828945,
432.000,0.0750249,
431.000,0.0580606,
430.000,0.045349,
429.000,0.0426601,
428.000,0.0516707,
427.000,0.0712731,
426.000,0.0794364,
425.000,0.0635518,
424.000,0.0364037,
423.000,0.0270353,
422.000,0.0411104,
421.000,0.0639125,
420.000,0.0901989,
419.000,0.108665,
418.000,0.0978741,
417.000,0.0429147,
416.000,0.0329954,
415.000,0.10535,
414.000,0.150305,
413.000,0.170708,
412.000,0.176905,
411.000,0.164446,
410.000,0.139573,
409.000,0.124952,
408.000,0.118832,
407.000,0.0952871,
406.000,0.0459993,
405.000,0.0339046,
404.000,0.0787336,
403.000,0.0782549,
402.000,0.0512583,
401.000,0.0682,
400.000,0.0906717,
