,d2o 166 By Administrator Date Wednesday. December 15 2021,
Time,16:38:58,
Wavenumbers [1/cm],Transmittance %,
7000.000,9.13749,
6999.000,9.19743,
6998.000,9.25667,
6997.000,9.31326,
6996.000,9.36721,
6995.000,9.42067,
6994.000,9.47638,
6993.000,9.53671,
6992.000,9.60251,
6991.000,9.67047,
6990.000,9.73347,
6989.000,9.78731,
6988.000,9.83606,
6987.000,9.88798,
6986.000,9.94612,
6985.000,10.0062,
6984.000,10.0651,
6983.000,10.126,
6982.000,10.1936,
6981.000,10.266,
6980.000,10.3358,
6979.000,10.3983,
6978.000,10.4564,
6977.000,10.5153,
6976.000,10.5761,
6975.000,10.6361,
6974.000,10.6937,
6973.000,10.7504,
6972.000,10.8084,
6971.000,10.8675,
6970.000,10.9266,
6969.000,10.9868,
6968.000,11.0501,
6967.000,11.1154,
6966.000,11.1795,
6965.000,11.2412,
6964.000,11.3019,
6963.000,11.3616,
6962.000,11.4171,
6961.000,11.4676,
6960.000,11.5182,
6959.000,11.5749,
6958.000,11.6383,
6957.000,11.703,
6956.000,11.764,
6955.000,11.8212,
6954.000,11.8776,
6953.000,11.9347,
6952.000,11.9912,
6951.000,12.0447,
6950.000,12.0962,
6949.000,12.1501,
6948.000,12.21,
6947.000,12.2741,
6946.000,12.3364,
6945.000,12.393,
6944.000,12.4448,
6943.000,12.4948,
6942.000,12.5434,
6941.000,12.5884,
6940.000,12.6275,
6939.000,12.6619,
6938.000,12.697,
6937.000,12.7387,
6936.000,12.7869,
6935.000,12.8357,
6934.000,12.8798,
6933.000,12.9219,
6932.000,12.9664,
6931.000,13.0109,
6930.000,13.0479,
6929.000,13.0778,
6928.000,13.1099,
6927.000,13.1495,
6926.000,13.19,
6925.000,13.2221,
6924.000,13.2454,
6923.000,13.2672,
6922.000,13.2916,
6921.000,13.3162,
6920.000,13.3377,
6919.000,13.3563,
6918.000,13.3742,
6917.000,13.3925,
6916.000,13.4098,
6915.000,13.4225,
6914.000,13.4278,
6913.000,13.4273,
6912.000,13.4261,
6911.000,13.4278,
6910.000,13.432,
6909.000,13.4371,
6908.000,13.4418,
6907.000,13.4451,
6906.000,13.4451,
6905.000,13.4416,
6904.000,13.4366,
6903.000,13.4323,
6902.000,13.4291,
6901.000,13.4259,
6900.000,13.4211,
6899.000,13.4115,
6898.000,13.3951,
6897.000,13.3734,
6896.000,13.3488,
6895.000,13.3202,
6894.000,13.2862,
6893.000,13.251,
6892.000,13.2224,
6891.000,13.2014,
6890.000,13.1808,
6889.000,13.1554,
6888.000,13.1288,
6887.000,13.1056,
6886.000,13.083,
6885.000,13.0559,
6884.000,13.0246,
6883.000,12.9925,
6882.000,12.9599,
6881.000,12.9234,
6880.000,12.882,
6879.000,12.8392,
6878.000,12.798,
6877.000,12.7581,
6876.000,12.7164,
6875.000,12.6697,
6874.000,12.6183,
6873.000,12.5673,
6872.000,12.5215,
6871.000,12.4806,
6870.000,12.4409,
6869.000,12.4011,
6868.000,12.3626,
6867.000,12.323,
6866.000,12.2768,
6865.000,12.2229,
6864.000,12.1673,
6863.000,12.1148,
6862.000,12.0638,
6861.000,12.0114,
6860.000,11.9598,
6859.000,11.9124,
6858.000,11.8676,
6857.000,11.8204,
6856.000,11.7689,
6855.000,11.7142,
6854.000,11.6577,
6853.000,11.6007,
6852.000,11.545,
6851.000,11.4909,
6850.000,11.4363,
6849.000,11.3809,
6848.000,11.328,
6847.000,11.2804,
6846.000,11.2361,
6845.000,11.191,
6844.000,11.1435,
6843.000,11.094,
6842.000,11.0428,
6841.000,10.9908,
6840.000,10.9404,
6839.000,10.891,
6838.000,10.8384,
6837.000,10.7802,
6836.000,10.7194,
6835.000,10.6608,
6834.000,10.6056,
6833.000,10.5517,
6832.000,10.4989,
6831.000,10.4489,
6830.000,10.4029,
6829.000,10.3611,
6828.000,10.3223,
6827.000,10.2821,
6826.000,10.2347,
6825.000,10.179,
6824.000,10.1206,
6823.000,10.0644,
6822.000,10.0088,
6821.000,9.9506,
6820.000,9.89266,
6819.000,9.84022,
6818.000,9.79264,
6817.000,9.74422,
6816.000,9.69207,
6815.000,9.63831,
6814.000,9.58494,
6813.000,9.53127,
6812.000,9.47739,
6811.000,9.42591,
6810.000,9.37853,
6809.000,9.33321,
6808.000,9.28626,
6807.000,9.23554,
6806.000,9.1814,
6805.000,9.12589,
6804.000,9.07154,
6803.000,9.01997,
6802.000,8.97149,
6801.000,8.92613,
6800.000,8.88375,
6799.000,8.84276,
6798.000,8.80048,
6797.000,8.75597,
6796.000,8.71063,
6795.000,8.66511,
6794.000,8.61846,
6793.000,8.57143,
6792.000,8.52733,
6791.000,8.48716,
6790.000,8.4466,
6789.000,8.4012,
6788.000,8.35209,
6787.000,8.30303,
6786.000,8.25375,
6785.000,8.20119,
6784.000,8.14606,
6783.000,8.09279,
6782.000,8.04305,
6781.000,7.99388,
6780.000,7.94355,
6779.000,7.89551,
6778.000,7.85417,
6777.000,7.81909,
6776.000,7.78568,
6775.000,7.75081,
6774.000,7.71493,
6773.000,7.67849,
6772.000,7.63833,
6771.000,7.58994,
6770.000,7.53362,
6769.000,7.47655,
6768.000,7.42624,
6767.000,7.38237,
6766.000,7.33795,
6765.000,7.28927,
6764.000,7.24119,
6763.000,7.20038,
6762.000,7.16607,
6761.000,7.13111,
6760.000,7.09101,
6759.000,7.04797,
6758.000,7.00581,
6757.000,6.96418,
6756.000,6.91949,
6755.000,6.8699,
6754.000,6.81824,
6753.000,6.7699,
6752.000,6.72797,
6751.000,6.69036,
6750.000,6.65234,
6749.000,6.61151,
6748.000,6.5695,
6747.000,6.52892,
6746.000,6.49042,
6745.000,6.45335,
6744.000,6.41719,
6743.000,6.3811,
6742.000,6.34363,
6741.000,6.30427,
6740.000,6.26416,
6739.000,6.22437,
6738.000,6.18476,
6737.000,6.14543,
6736.000,6.10742,
6735.000,6.07063,
6734.000,6.03291,
6733.000,5.9928,
6732.000,5.95172,
6731.000,5.91192,
6730.000,5.87423,
6729.000,5.83933,
6728.000,5.80868,
6727.000,5.78164,
6726.000,5.75347,
6725.000,5.71938,
6724.000,5.67986,
6723.000,5.63933,
6722.000,5.60079,
6721.000,5.56435,
6720.000,5.52999,
6719.000,5.49787,
6718.000,5.46634,
6717.000,5.43304,
6716.000,5.3983,
6715.000,5.36457,
6714.000,5.33206,
6713.000,5.29818,
6712.000,5.26203,
6711.000,5.226,
6710.000,5.19101,
6709.000,5.15343,
6708.000,5.11003,
6707.000,5.06449,
6706.000,5.02533,
6705.000,4.99679,
6704.000,4.9743,
6703.000,4.95028,
6702.000,4.92241,
6701.000,4.894,
6700.000,4.86767,
6699.000,4.84168,
6698.000,4.81346,
6697.000,4.78346,
6696.000,4.75412,
6695.000,4.72525,
6694.000,4.69465,
6693.000,4.66271,
6692.000,4.63313,
6691.000,4.60795,
6690.000,4.58441,
6689.000,4.55824,
6688.000,4.52851,
6687.000,4.49693,
6686.000,4.46428,
6685.000,4.43003,
6684.000,4.39499,
6683.000,4.3618,
6682.000,4.33227,
6681.000,4.30569,
6680.000,4.28,
6679.000,4.25371,
6678.000,4.2271,
6677.000,4.20215,
6676.000,4.18079,
6675.000,4.1624,
6674.000,4.14373,
6673.000,4.12209,
6672.000,4.09766,
6671.000,4.07205,
6670.000,4.04609,
6669.000,4.02006,
6668.000,3.99453,
6667.000,3.96923,
6666.000,3.94261,
6665.000,3.91469,
6664.000,3.8888,
6663.000,3.86805,
6662.000,3.85121,
6661.000,3.83459,
6660.000,3.8169,
6659.000,3.79925,
6658.000,3.78126,
6657.000,3.76089,
6656.000,3.73835,
6655.000,3.71689,
6654.000,3.69874,
6653.000,3.68308,
6652.000,3.66817,
6651.000,3.65313,
6650.000,3.63673,
6649.000,3.6175,
6648.000,3.59637,
6647.000,3.5766,
6646.000,3.55967,
6645.000,3.54334,
6644.000,3.52523,
6643.000,3.50584,
6642.000,3.48681,
6641.000,3.46908,
6640.000,3.45422,
6639.000,3.44473,
6638.000,3.44081,
6637.000,3.43878,
6636.000,3.43474,
6635.000,3.42779,
6634.000,3.41745,
6633.000,3.40116,
6632.000,3.37788,
6631.000,3.35258,
6630.000,3.33311,
6629.000,3.32258,
6628.000,3.31769,
6627.000,3.31417,
6626.000,3.3107,
6625.000,3.3073,
6624.000,3.30286,
6623.000,3.29561,
6622.000,3.28464,
6621.000,3.27031,
6620.000,3.25452,
6619.000,3.24056,
6618.000,3.23076,
6617.000,3.22426,
6616.000,3.21842,
6615.000,3.21206,
6614.000,3.20537,
6613.000,3.19746,
6612.000,3.18651,
6611.000,3.17276,
6610.000,3.15899,
6609.000,3.1477,
6608.000,3.14009,
6607.000,3.13776,
6606.000,3.14232,
6605.000,3.15209,
6604.000,3.16184,
6603.000,3.16727,
6602.000,3.16806,
6601.000,3.16574,
6600.000,3.161,
6599.000,3.15443,
6598.000,3.14748,
6597.000,3.14105,
6596.000,3.13493,
6595.000,3.12989,
6594.000,3.12797,
6593.000,3.12904,
6592.000,3.12973,
6591.000,3.12819,
6590.000,3.12725,
6589.000,3.12968,
6588.000,3.1326,
6587.000,3.13088,
6586.000,3.12464,
6585.000,3.11899,
6584.000,3.1167,
6583.000,3.11581,
6582.000,3.11521,
6581.000,3.11765,
6580.000,3.12506,
6579.000,3.13424,
6578.000,3.14017,
6577.000,3.14187,
6576.000,3.14225,
6575.000,3.14354,
6574.000,3.14544,
6573.000,3.14762,
6572.000,3.15154,
6571.000,3.15843,
6570.000,3.16675,
6569.000,3.17294,
6568.000,3.17522,
6567.000,3.17565,
6566.000,3.17753,
6565.000,3.18116,
6564.000,3.18399,
6563.000,3.18521,
6562.000,3.18766,
6561.000,3.19364,
6560.000,3.20102,
6559.000,3.20619,
6558.000,3.20925,
6557.000,3.21308,
6556.000,3.21825,
6555.000,3.22281,
6554.000,3.227,
6553.000,3.23409,
6552.000,3.24566,
6551.000,3.2598,
6550.000,3.27499,
6549.000,3.29167,
6548.000,3.30825,
6547.000,3.31971,
6546.000,3.32329,
6545.000,3.3228,
6544.000,3.32387,
6543.000,3.32755,
6542.000,3.3319,
6541.000,3.33724,
6540.000,3.34546,
6539.000,3.35539,
6538.000,3.36359,
6537.000,3.36941,
6536.000,3.37566,
6535.000,3.38423,
6534.000,3.39432,
6533.000,3.40503,
6532.000,3.41617,
6531.000,3.42645,
6530.000,3.43429,
6529.000,3.44132,
6528.000,3.4516,
6527.000,3.46648,
6526.000,3.48279,
6525.000,3.49746,
6524.000,3.51105,
6523.000,3.52527,
6522.000,3.53955,
6521.000,3.55213,
6520.000,3.56339,
6519.000,3.57576,
6518.000,3.59115,
6517.000,3.60932,
6516.000,3.62828,
6515.000,3.64563,
6514.000,3.66008,
6513.000,3.67241,
6512.000,3.68432,
6511.000,3.69642,
6510.000,3.70822,
6509.000,3.72006,
6508.000,3.73341,
6507.000,3.7493,
6506.000,3.76733,
6505.000,3.78639,
6504.000,3.80506,
6503.000,3.82167,
6502.000,3.8356,
6501.000,3.84845,
6500.000,3.86237,
6499.000,3.87731,
6498.000,3.89176,
6497.000,3.90583,
6496.000,3.92117,
6495.000,3.93744,
6494.000,3.95206,
6493.000,3.96427,
6492.000,3.9773,
6491.000,3.99478,
6490.000,4.01694,
6489.000,4.04147,
6488.000,4.06639,
6487.000,4.09054,
6486.000,4.11292,
6485.000,4.1334,
6484.000,4.15278,
6483.000,4.17109,
6482.000,4.18713,
6481.000,4.20107,
6480.000,4.21585,
6479.000,4.23405,
6478.000,4.25459,
6477.000,4.27444,
6476.000,4.29328,
6475.000,4.31421,
6474.000,4.33979,
6473.000,4.36885,
6472.000,4.39773,
6471.000,4.42379,
6470.000,4.44688,
6469.000,4.46766,
6468.000,4.48569,
6467.000,4.50028,
6466.000,4.51353,
6465.000,4.5308,
6464.000,4.55638,
6463.000,4.58882,
6462.000,4.62231,
6461.000,4.65219,
6460.000,4.67753,
6459.000,4.69875,
6458.000,4.71594,
6457.000,4.73049,
6456.000,4.74621,
6455.000,4.76687,
6454.000,4.79338,
6453.000,4.82392,
6452.000,4.85574,
6451.000,4.88617,
6450.000,4.91393,
6449.000,4.94016,
6448.000,4.96713,
6447.000,4.9953,
6446.000,5.02303,
6445.000,5.04993,
6444.000,5.07857,
6443.000,5.1114,
6442.000,5.14739,
6441.000,5.18295,
6440.000,5.21569,
6439.000,5.24574,
6438.000,5.27417,
6437.000,5.30104,
6436.000,5.32554,
6435.000,5.34783,
6434.000,5.37057,
6433.000,5.3976,
6432.000,5.43046,
6431.000,5.46698,
6430.000,5.50437,
6429.000,5.54228,
6428.000,5.58115,
6427.000,5.61923,
6426.000,5.65398,
6425.000,5.68557,
6424.000,5.71609,
6423.000,5.74613,
6422.000,5.77553,
6421.000,5.80659,
6420.000,5.8425,
6419.000,5.88224,
6418.000,5.92148,
6417.000,5.9591,
6416.000,5.99846,
6415.000,6.04085,
6414.000,6.08229,
6413.000,6.11951,
6412.000,6.15522,
6411.000,6.1942,
6410.000,6.23707,
6409.000,6.28101,
6408.000,6.3243,
6407.000,6.36717,
6406.000,6.40956,
6405.000,6.45093,
6404.000,6.49124,
6403.000,6.53048,
6402.000,6.56845,
6401.000,6.60604,
6400.000,6.64515,
6399.000,6.6862,
6398.000,6.72764,
6397.000,6.76867,
6396.000,6.81,
6395.000,6.8513,
6394.000,6.89085,
6393.000,6.92874,
6392.000,6.96741,
6391.000,7.00784,
6390.000,7.04865,
6389.000,7.09015,
6388.000,7.13545,
6387.000,7.18559,
6386.000,7.23737,
6385.000,7.28854,
6384.000,7.34097,
6383.000,7.39605,
6382.000,7.45079,
6381.000,7.5022,
6380.000,7.55198,
6379.000,7.60308,
6378.000,7.65472,
6377.000,7.70503,
6376.000,7.75538,
6375.000,7.80778,
6374.000,7.86048,
6373.000,7.91092,
6372.000,7.96085,
6371.000,8.01424,
6370.000,8.07132,
6369.000,8.12951,
6368.000,8.18836,
6367.000,8.249,
6366.000,8.30958,
6365.000,8.36621,
6364.000,8.41808,
6363.000,8.46796,
6362.000,8.51758,
6361.000,8.56649,
6360.000,8.6152,
6359.000,8.66598,
6358.000,8.72022,
6357.000,8.77788,
6356.000,8.83924,
6355.000,8.90421,
6354.000,8.97019,
6353.000,9.03336,
6352.000,9.09244,
6351.000,9.14915,
6350.000,9.20539,
6349.000,9.26237,
6348.000,9.32148,
6347.000,9.38356,
6346.000,9.44747,
6345.000,9.51134,
6344.000,9.57448,
6343.000,9.63629,
6342.000,9.69504,
6341.000,9.75042,
6340.000,9.80578,
6339.000,9.86463,
6338.000,9.92583,
6337.000,9.98546,
6336.000,10.0427,
6335.000,10.1006,
6334.000,10.1609,
6333.000,10.2212,
6332.000,10.2788,
6331.000,10.334,
6330.000,10.3897,
6329.000,10.4483,
6328.000,10.5098,
6327.000,10.5724,
6326.000,10.6337,
6325.000,10.6935,
6324.000,10.7527,
6323.000,10.8105,
6322.000,10.865,
6321.000,10.9158,
6320.000,10.9657,
6319.000,11.0166,
6318.000,11.0665,
6317.000,11.1134,
6316.000,11.1593,
6315.000,11.2076,
6314.000,11.2589,
6313.000,11.3109,
6312.000,11.3621,
6311.000,11.4121,
6310.000,11.4594,
6309.000,11.5028,
6308.000,11.5431,
6307.000,11.5824,
6306.000,11.6221,
6305.000,11.6619,
6304.000,11.7012,
6303.000,11.7385,
6302.000,11.7728,
6301.000,11.8041,
6300.000,11.8335,
6299.000,11.8612,
6298.000,11.8867,
6297.000,11.911,
6296.000,11.936,
6295.000,11.9609,
6294.000,11.9825,
6293.000,12.0003,
6292.000,12.0174,
6291.000,12.035,
6290.000,12.0503,
6289.000,12.0617,
6288.000,12.0716,
6287.000,12.0819,
6286.000,12.0907,
6285.000,12.0957,
6284.000,12.0984,
6283.000,12.1003,
6282.000,12.0994,
6281.000,12.0929,
6280.000,12.0828,
6279.000,12.0734,
6278.000,12.0656,
6277.000,12.057,
6276.000,12.0475,
6275.000,12.0388,
6274.000,12.0303,
6273.000,12.0188,
6272.000,12.0025,
6271.000,11.983,
6270.000,11.9621,
6269.000,11.9404,
6268.000,11.9173,
6267.000,11.8926,
6266.000,11.8661,
6265.000,11.8384,
6264.000,11.8103,
6263.000,11.7819,
6262.000,11.7522,
6261.000,11.7202,
6260.000,11.6858,
6259.000,11.649,
6258.000,11.6099,
6257.000,11.5691,
6256.000,11.5286,
6255.000,11.4889,
6254.000,11.4495,
6253.000,11.41,
6252.000,11.3707,
6251.000,11.3308,
6250.000,11.2883,
6249.000,11.2431,
6248.000,11.1977,
6247.000,11.1541,
6246.000,11.1115,
6245.000,11.0677,
6244.000,11.0217,
6243.000,10.9729,
6242.000,10.9214,
6241.000,10.8679,
6240.000,10.8139,
6239.000,10.7602,
6238.000,10.7074,
6237.000,10.6572,
6236.000,10.6111,
6235.000,10.5671,
6234.000,10.5206,
6233.000,10.4701,
6232.000,10.4183,
6231.000,10.3682,
6230.000,10.3188,
6229.000,10.2685,
6228.000,10.2174,
6227.000,10.1662,
6226.000,10.1145,
6225.000,10.0624,
6224.000,10.0117,
6223.000,9.96321,
6222.000,9.91539,
6221.000,9.86588,
6220.000,9.81351,
6219.000,9.75735,
6218.000,9.69666,
6217.000,9.63329,
6216.000,9.57195,
6215.000,9.51616,
6214.000,9.46529,
6213.000,9.41665,
6212.000,9.36867,
6211.000,9.32081,
6210.000,9.27213,
6209.000,9.22148,
6208.000,9.16814,
6207.000,9.11194,
6206.000,9.05401,
6205.000,8.99736,
6204.000,8.94444,
6203.000,8.89413,
6202.000,8.84344,
6201.000,8.79246,
6200.000,8.74424,
6199.000,8.69942,
6198.000,8.65438,
6197.000,8.60626,
6196.000,8.55622,
6195.000,8.50637,
6194.000,8.45655,
6193.000,8.40607,
6192.000,8.35561,
6191.000,8.30537,
6190.000,8.25413,
6189.000,8.20206,
6188.000,8.15163,
6187.000,8.10339,
6186.000,8.05413,
6185.000,8.0019,
6184.000,7.94971,
6183.000,7.90097,
6182.000,7.8538,
6181.000,7.80385,
6180.000,7.75103,
6179.000,7.69937,
6178.000,7.65106,
6177.000,7.60463,
6176.000,7.55863,
6175.000,7.51329,
6174.000,7.46813,
6173.000,7.4211,
6172.000,7.37117,
6171.000,7.31986,
6170.000,7.26904,
6169.000,7.21903,
6168.000,7.16976,
6167.000,7.12237,
6166.000,7.0784,
6165.000,7.03785,
6164.000,6.99879,
6163.000,6.95875,
6162.000,6.91636,
6161.000,6.87158,
6160.000,6.82466,
6159.000,6.77573,
6158.000,6.72571,
6157.000,6.6766,
6156.000,6.62965,
6155.000,6.58385,
6154.000,6.53766,
6153.000,6.49148,
6152.000,6.44664,
6151.000,6.40247,
6150.000,6.35705,
6149.000,6.31065,
6148.000,6.26538,
6147.000,6.22119,
6146.000,6.17559,
6145.000,6.12835,
6144.000,6.08314,
6143.000,6.04251,
6142.000,6.00445,
6141.000,5.9659,
6140.000,5.92672,
6139.000,5.88748,
6138.000,5.84633,
6137.000,5.80179,
6136.000,5.75661,
6135.000,5.71491,
6134.000,5.67636,
6133.000,5.63721,
6132.000,5.59618,
6131.000,5.55528,
6130.000,5.51479,
6129.000,5.47182,
6128.000,5.42517,
6127.000,5.37834,
6126.000,5.33581,
6125.000,5.2983,
6124.000,5.26334,
6123.000,5.22876,
6122.000,5.19371,
6121.000,5.15772,
6120.000,5.12045,
6119.000,5.08231,
6118.000,5.04411,
6117.000,5.00611,
6116.000,4.96786,
6115.000,4.92875,
6114.000,4.88845,
6113.000,4.84736,
6112.000,4.80682,
6111.000,4.76853,
6110.000,4.73345,
6109.000,4.70133,
6108.000,4.67094,
6107.000,4.64047,
6106.000,4.60831,
6105.000,4.57426,
6104.000,4.53969,
6103.000,4.50563,
6102.000,4.47123,
6101.000,4.43507,
6100.000,4.39756,
6099.000,4.36059,
6098.000,4.32515,
6097.000,4.29075,
6096.000,4.25715,
6095.000,4.22498,
6094.000,4.19404,
6093.000,4.16264,
6092.000,4.1294,
6091.000,4.09475,
6090.000,4.05986,
6089.000,4.02508,
6088.000,3.99012,
6087.000,3.95505,
6086.000,3.92024,
6085.000,3.8861,
6084.000,3.85342,
6083.000,3.82333,
6082.000,3.79585,
6081.000,3.76904,
6080.000,3.74068,
6079.000,3.71042,
6078.000,3.67939,
6077.000,3.64822,
6076.000,3.61693,
6075.000,3.5865,
6074.000,3.5589,
6073.000,3.53476,
6072.000,3.51202,
6071.000,3.48795,
6070.000,3.46172,
6069.000,3.43434,
6068.000,3.40668,
6067.000,3.37848,
6066.000,3.34949,
6065.000,3.32084,
6064.000,3.29451,
6063.000,3.27144,
6062.000,3.25021,
6061.000,3.22791,
6060.000,3.20261,
6059.000,3.17492,
6058.000,3.14695,
6057.000,3.12012,
6056.000,3.09459,
6055.000,3.0707,
6054.000,3.04945,
6053.000,3.03096,
6052.000,3.01309,
6051.000,2.99316,
6050.000,2.97074,
6049.000,2.94771,
6048.000,2.92565,
6047.000,2.90425,
6046.000,2.88272,
6045.000,2.86127,
6044.000,2.84066,
6043.000,2.82127,
6042.000,2.80329,
6041.000,2.78701,
6040.000,2.77173,
6039.000,2.75513,
6038.000,2.73515,
6037.000,2.71225,
6036.000,2.68863,
6035.000,2.66562,
6034.000,2.64357,
6033.000,2.62407,
6032.000,2.6099,
6031.000,2.60166,
6030.000,2.59619,
6029.000,2.58959,
6028.000,2.58059,
6027.000,2.56981,
6026.000,2.55721,
6025.000,2.54226,
6024.000,2.52578,
6023.000,2.50951,
6022.000,2.49385,
6021.000,2.47797,
6020.000,2.46196,
6019.000,2.44742,
6018.000,2.43535,
6017.000,2.42517,
6016.000,2.41605,
6015.000,2.40779,
6014.000,2.39979,
6013.000,2.39056,
6012.000,2.37926,
6011.000,2.36673,
6010.000,2.35394,
6009.000,2.34064,
6008.000,2.32653,
6007.000,2.31289,
6006.000,2.30153,
6005.000,2.29283,
6004.000,2.28595,
6003.000,2.28078,
6002.000,2.27803,
6001.000,2.27716,
6000.000,2.27602,
5999.000,2.27303,
5998.000,2.26875,
5997.000,2.26431,
5996.000,2.25914,
5995.000,2.25167,
5994.000,2.24219,
5993.000,2.23348,
5992.000,2.22771,
5991.000,2.22379,
5990.000,2.21898,
5989.000,2.21266,
5988.000,2.20707,
5987.000,2.20384,
5986.000,2.2018,
5985.000,2.19921,
5984.000,2.19665,
5983.000,2.196,
5982.000,2.19696,
5981.000,2.19689,
5980.000,2.19402,
5979.000,2.18926,
5978.000,2.1843,
5977.000,2.17961,
5976.000,2.17519,
5975.000,2.17168,
5974.000,2.16963,
5973.000,2.16872,
5972.000,2.16872,
5971.000,2.17003,
5970.000,2.17213,
5969.000,2.17278,
5968.000,2.17038,
5967.000,2.16674,
5966.000,2.16533,
5965.000,2.16703,
5964.000,2.16962,
5963.000,2.17122,
5962.000,2.17243,
5961.000,2.1741,
5960.000,2.17491,
5959.000,2.17275,
5958.000,2.16756,
5957.000,2.16155,
5956.000,2.15711,
5955.000,2.15566,
5954.000,2.15801,
5953.000,2.16418,
5952.000,2.1725,
5951.000,2.18006,
5950.000,2.18525,
5949.000,2.18914,
5948.000,2.19389,
5947.000,2.20009,
5946.000,2.20645,
5945.000,2.21155,
5944.000,2.21507,
5943.000,2.21694,
5942.000,2.2165,
5941.000,2.2137,
5940.000,2.21067,
5939.000,2.21095,
5938.000,2.21638,
5937.000,2.22546,
5936.000,2.23499,
5935.000,2.24297,
5934.000,2.24984,
5933.000,2.25689,
5932.000,2.26426,
5931.000,2.27058,
5930.000,2.27462,
5929.000,2.27715,
5928.000,2.28035,
5927.000,2.28523,
5926.000,2.29025,
5925.000,2.29326,
5924.000,2.29465,
5923.000,2.29717,
5922.000,2.30268,
5921.000,2.31055,
5920.000,2.31934,
5919.000,2.32884,
5918.000,2.33917,
5917.000,2.34924,
5916.000,2.35758,
5915.000,2.36434,
5914.000,2.37108,
5913.000,2.37866,
5912.000,2.38655,
5911.000,2.39416,
5910.000,2.4019,
5909.000,2.41039,
5908.000,2.41958,
5907.000,2.429,
5906.000,2.43844,
5905.000,2.44795,
5904.000,2.45744,
5903.000,2.46656,
5902.000,2.47481,
5901.000,2.4819,
5900.000,2.48838,
5899.000,2.49576,
5898.000,2.50538,
5897.000,2.51694,
5896.000,2.52856,
5895.000,2.53854,
5894.000,2.54663,
5893.000,2.55373,
5892.000,2.56086,
5891.000,2.56893,
5890.000,2.57906,
5889.000,2.59225,
5888.000,2.60842,
5887.000,2.62578,
5886.000,2.64159,
5885.000,2.65402,
5884.000,2.6633,
5883.000,2.6711,
5882.000,2.67856,
5881.000,2.6858,
5880.000,2.69326,
5879.000,2.70269,
5878.000,2.71554,
5877.000,2.73077,
5876.000,2.74556,
5875.000,2.75861,
5874.000,2.77152,
5873.000,2.78633,
5872.000,2.80266,
5871.000,2.81845,
5870.000,2.83258,
5869.000,2.84564,
5868.000,2.85821,
5867.000,2.86992,
5866.000,2.88095,
5865.000,2.89296,
5864.000,2.90747,
5863.000,2.9236,
5862.000,2.93877,
5861.000,2.95156,
5860.000,2.96315,
5859.000,2.97578,
5858.000,2.99058,
5857.000,3.00733,
5856.000,3.02529,
5855.000,3.04373,
5854.000,3.06183,
5853.000,3.07908,
5852.000,3.09556,
5851.000,3.11197,
5850.000,3.12911,
5849.000,3.1476,
5848.000,3.16731,
5847.000,3.18695,
5846.000,3.20466,
5845.000,3.21994,
5844.000,3.23449,
5843.000,3.2506,
5842.000,3.26868,
5841.000,3.28744,
5840.000,3.30599,
5839.000,3.32464,
5838.000,3.34351,
5837.000,3.36195,
5836.000,3.38,
5835.000,3.39912,
5834.000,3.42025,
5833.000,3.44202,
5832.000,3.46238,
5831.000,3.4813,
5830.000,3.50031,
5829.000,3.51966,
5828.000,3.53755,
5827.000,3.5528,
5826.000,3.56669,
5825.000,3.58147,
5824.000,3.5985,
5823.000,3.61858,
5822.000,3.64282,
5821.000,3.6712,
5820.000,3.70089,
5819.000,3.72787,
5818.000,3.75032,
5817.000,3.76983,
5816.000,3.78893,
5815.000,3.8088,
5814.000,3.82968,
5813.000,3.85201,
5812.000,3.87623,
5811.000,3.90216,
5810.000,3.92936,
5809.000,3.95745,
5808.000,3.98556,
5807.000,4.01222,
5806.000,4.03662,
5805.000,4.0597,
5804.000,4.08312,
5803.000,4.1076,
5802.000,4.13299,
5801.000,4.15953,
5800.000,4.18769,
5799.000,4.217,
5798.000,4.24597,
5797.000,4.27372,
5796.000,4.3009,
5795.000,4.32869,
5794.000,4.35737,
5793.000,4.38637,
5792.000,4.41533,
5791.000,4.44466,
5790.000,4.4749,
5789.000,4.50577,
5788.000,4.53615,
5787.000,4.5653,
5786.000,4.59403,
5785.000,4.62383,
5784.000,4.65495,
5783.000,4.68619,
5782.000,4.717,
5781.000,4.74856,
5780.000,4.78195,
5779.000,4.81636,
5778.000,4.85035,
5777.000,4.88415,
5776.000,4.91908,
5775.000,4.95521,
5774.000,4.99138,
5773.000,5.02731,
5772.000,5.06398,
5771.000,5.10174,
5770.000,5.13967,
5769.000,5.1773,
5768.000,5.21537,
5767.000,5.25442,
5766.000,5.29372,
5765.000,5.33239,
5764.000,5.37023,
5763.000,5.40712,
5762.000,5.44308,
5761.000,5.47938,
5760.000,5.51812,
5759.000,5.55985,
5758.000,5.60281,
5757.000,5.64525,
5756.000,5.68718,
5755.000,5.72899,
5754.000,5.77003,
5753.000,5.80997,
5752.000,5.85031,
5751.000,5.89279,
5750.000,5.93722,
5749.000,5.98231,
5748.000,6.02801,
5747.000,6.07531,
5746.000,6.12404,
5745.000,6.17225,
5744.000,6.21811,
5743.000,6.26147,
5742.000,6.30334,
5741.000,6.34479,
5740.000,6.38657,
5739.000,6.42944,
5738.000,6.47438,
5737.000,6.52217,
5736.000,6.57254,
5735.000,6.62403,
5734.000,6.67542,
5733.000,6.72712,
5732.000,6.78025,
5731.000,6.83466,
5730.000,6.88903,
5729.000,6.9429,
5728.000,6.99709,
5727.000,7.05166,
5726.000,7.10538,
5725.000,7.15785,
5724.000,7.21067,
5723.000,7.26518,
5722.000,7.32058,
5721.000,7.37557,
5720.000,7.43075,
5719.000,7.48755,
5718.000,7.54562,
5717.000,7.60311,
5716.000,7.65902,
5715.000,7.71385,
5714.000,7.76843,
5713.000,7.82364,
5712.000,7.88101,
5711.000,7.942,
5710.000,8.00604,
5709.000,8.07031,
5708.000,8.13171,
5707.000,8.18887,
5706.000,8.24249,
5705.000,8.29471,
5704.000,8.34789,
5703.000,8.40325,
5702.000,8.46037,
5701.000,8.51804,
5700.000,8.57548,
5699.000,8.63271,
5698.000,8.69023,
5697.000,8.7489,
5696.000,8.80934,
5695.000,8.87087,
5694.000,8.93141,
5693.000,8.98917,
5692.000,9.04377,
5691.000,9.09588,
5690.000,9.14604,
5689.000,9.19454,
5688.000,9.24219,
5687.000,9.29001,
5686.000,9.33831,
5685.000,9.38653,
5684.000,9.43403,
5683.000,9.48095,
5682.000,9.52817,
5681.000,9.57622,
5680.000,9.62426,
5679.000,9.67038,
5678.000,9.71339,
5677.000,9.75367,
5676.000,9.79187,
5675.000,9.8276,
5674.000,9.86064,
5673.000,9.89251,
5672.000,9.9251,
5671.000,9.95772,
5670.000,9.98732,
5669.000,10.0121,
5668.000,10.0336,
5667.000,10.0542,
5666.000,10.0749,
5665.000,10.0958,
5664.000,10.1172,
5663.000,10.1392,
5662.000,10.16,
5661.000,10.177,
5660.000,10.1887,
5659.000,10.1961,
5658.000,10.2013,
5657.000,10.2052,
5656.000,10.2069,
5655.000,10.2046,
5654.000,10.1986,
5653.000,10.1903,
5652.000,10.1808,
5651.000,10.1697,
5650.000,10.1574,
5649.000,10.1453,
5648.000,10.1342,
5647.000,10.1219,
5646.000,10.1066,
5645.000,10.0889,
5644.000,10.071,
5643.000,10.0527,
5642.000,10.0318,
5641.000,10.007,
5640.000,9.97906,
5639.000,9.94883,
5638.000,9.91652,
5637.000,9.88324,
5636.000,9.85099,
5635.000,9.82045,
5634.000,9.79022,
5633.000,9.75869,
5632.000,9.72558,
5631.000,9.69132,
5630.000,9.6561,
5629.000,9.62006,
5628.000,9.58323,
5627.000,9.54484,
5626.000,9.50398,
5625.000,9.46104,
5624.000,9.41752,
5623.000,9.374,
5622.000,9.32953,
5621.000,9.28323,
5620.000,9.23566,
5619.000,9.18826,
5618.000,9.14212,
5617.000,9.09756,
5616.000,9.0539,
5615.000,9.00963,
5614.000,8.96315,
5613.000,8.91394,
5612.000,8.86302,
5611.000,8.81239,
5610.000,8.76427,
5609.000,8.71954,
5608.000,8.67646,
5607.000,8.63159,
5606.000,8.5831,
5605.000,8.53222,
5604.000,8.48111,
5603.000,8.43031,
5602.000,8.37968,
5601.000,8.33012,
5600.000,8.28238,
5599.000,8.23504,
5598.000,8.18576,
5597.000,8.13436,
5596.000,8.0826,
5595.000,8.03144,
5594.000,7.98051,
5593.000,7.93021,
5592.000,7.88192,
5591.000,7.83555,
5590.000,7.78898,
5589.000,7.74052,
5588.000,7.69041,
5587.000,7.63929,
5586.000,7.587,
5585.000,7.53408,
5584.000,7.48276,
5583.000,7.4351,
5582.000,7.39056,
5581.000,7.3466,
5580.000,7.30113,
5579.000,7.25374,
5578.000,7.20499,
5577.000,7.15577,
5576.000,7.10722,
5575.000,7.06031,
5574.000,7.01481,
5573.000,6.96883,
5572.000,6.92009,
5571.000,6.86803,
5570.000,6.81482,
5569.000,6.7637,
5568.000,6.71625,
5567.000,6.67139,
5566.000,6.62728,
5565.000,6.58313,
5564.000,6.53907,
5563.000,6.49487,
5562.000,6.44995,
5561.000,6.40412,
5560.000,6.35738,
5559.000,6.30936,
5558.000,6.25974,
5557.000,6.20933,
5556.000,6.15983,
5555.000,6.11267,
5554.000,6.06836,
5553.000,6.02682,
5552.000,5.98747,
5551.000,5.9491,
5550.000,5.91015,
5549.000,5.8695,
5548.000,5.82674,
5547.000,5.78215,
5546.000,5.73665,
5545.000,5.69144,
5544.000,5.64713,
5543.000,5.60337,
5542.000,5.55955,
5541.000,5.51568,
5540.000,5.4721,
5539.000,5.42882,
5538.000,5.38571,
5537.000,5.34288,
5536.000,5.30051,
5535.000,5.25841,
5534.000,5.21641,
5533.000,5.17478,
5532.000,5.1338,
5531.000,5.09325,
5530.000,5.0527,
5529.000,5.01224,
5528.000,4.97227,
5527.000,4.93268,
5526.000,4.89278,
5525.000,4.85185,
5524.000,4.80974,
5523.000,4.76707,
5522.000,4.72506,
5521.000,4.68475,
5520.000,4.64623,
5519.000,4.60887,
5518.000,4.57215,
5517.000,4.53577,
5516.000,4.499,
5515.000,4.46106,
5514.000,4.42231,
5513.000,4.38408,
5512.000,4.34682,
5511.000,4.30948,
5510.000,4.27125,
5509.000,4.23268,
5508.000,4.19441,
5507.000,4.15585,
5506.000,4.11655,
5505.000,4.07777,
5504.000,4.04129,
5503.000,4.00703,
5502.000,3.97348,
5501.000,3.93993,
5500.000,3.90677,
5499.000,3.87367,
5498.000,3.83919,
5497.000,3.80267,
5496.000,3.76512,
5495.000,3.72803,
5494.000,3.69207,
5493.000,3.65741,
5492.000,3.62431,
5491.000,3.5927,
5490.000,3.56181,
5489.000,3.53081,
5488.000,3.49943,
5487.000,3.46753,
5486.000,3.43467,
5485.000,3.40039,
5484.000,3.36504,
5483.000,3.32982,
5482.000,3.29608,
5481.000,3.26423,
5480.000,3.23331,
5479.000,3.20173,
5478.000,3.16897,
5477.000,3.13628,
5476.000,3.10514,
5475.000,3.07542,
5474.000,3.04591,
5473.000,3.01613,
5472.000,2.98666,
5471.000,2.95773,
5470.000,2.92889,
5469.000,2.90021,
5468.000,2.87246,
5467.000,2.84553,
5466.000,2.81799,
5465.000,2.78921,
5464.000,2.76075,
5463.000,2.73442,
5462.000,2.70975,
5461.000,2.68462,
5460.000,2.65811,
5459.000,2.63118,
5458.000,2.60486,
5457.000,2.5792,
5456.000,2.55439,
5455.000,2.53125,
5454.000,2.50998,
5453.000,2.48917,
5452.000,2.46718,
5451.000,2.44362,
5450.000,2.41915,
5449.000,2.39454,
5448.000,2.37067,
5447.000,2.34858,
5446.000,2.32847,
5445.000,2.30897,
5444.000,2.28845,
5443.000,2.26664,
5442.000,2.24425,
5441.000,2.22155,
5440.000,2.19872,
5439.000,2.17692,
5438.000,2.15749,
5437.000,2.14012,
5436.000,2.12334,
5435.000,2.10669,
5434.000,2.09101,
5433.000,2.07609,
5432.000,2.05985,
5431.000,2.04081,
5430.000,2.02016,
5429.000,2.00031,
5428.000,1.98235,
5427.000,1.96601,
5426.000,1.95121,
5425.000,1.9382,
5424.000,1.92654,
5423.000,1.91508,
5422.000,1.90293,
5421.000,1.88959,
5420.000,1.87463,
5419.000,1.85787,
5418.000,1.83991,
5417.000,1.82205,
5416.000,1.80566,
5415.000,1.79184,
5414.000,1.78113,
5413.000,1.77303,
5412.000,1.76584,
5411.000,1.75764,
5410.000,1.74764,
5409.000,1.73637,
5408.000,1.72463,
5407.000,1.71263,
5406.000,1.70017,
5405.000,1.68715,
5404.000,1.67395,
5403.000,1.66144,
5402.000,1.65033,
5401.000,1.6405,
5400.000,1.63117,
5399.000,1.62197,
5398.000,1.61323,
5397.000,1.60526,
5396.000,1.59784,
5395.000,1.59098,
5394.000,1.5852,
5393.000,1.58064,
5392.000,1.57615,
5391.000,1.57023,
5390.000,1.5625,
5389.000,1.55379,
5388.000,1.54516,
5387.000,1.53749,
5386.000,1.53133,
5385.000,1.52631,
5384.000,1.52108,
5383.000,1.51458,
5382.000,1.50736,
5381.000,1.50088,
5380.000,1.49587,
5379.000,1.49195,
5378.000,1.48887,
5377.000,1.48664,
5376.000,1.48476,
5375.000,1.48218,
5374.000,1.47832,
5373.000,1.47359,
5372.000,1.46853,
5371.000,1.46312,
5370.000,1.45744,
5369.000,1.4523,
5368.000,1.44852,
5367.000,1.4461,
5366.000,1.44439,
5365.000,1.44293,
5364.000,1.44169,
5363.000,1.44071,
5362.000,1.4398,
5361.000,1.43856,
5360.000,1.43675,
5359.000,1.43469,
5358.000,1.43319,
5357.000,1.43286,
5356.000,1.4334,
5355.000,1.43383,
5354.000,1.43324,
5353.000,1.43123,
5352.000,1.42813,
5351.000,1.42489,
5350.000,1.42269,
5349.000,1.42205,
5348.000,1.4226,
5347.000,1.42383,
5346.000,1.42535,
5345.000,1.4263,
5344.000,1.4253,
5343.000,1.42188,
5342.000,1.41745,
5341.000,1.41419,
5340.000,1.41321,
5339.000,1.41444,
5338.000,1.41753,
5337.000,1.42172,
5336.000,1.42511,
5335.000,1.42597,
5334.000,1.42485,
5333.000,1.42394,
5332.000,1.42435,
5331.000,1.42513,
5330.000,1.42558,
5329.000,1.42675,
5328.000,1.42984,
5327.000,1.43415,
5326.000,1.43769,
5325.000,1.43915,
5324.000,1.43875,
5323.000,1.43767,
5322.000,1.43737,
5321.000,1.43898,
5320.000,1.44243,
5319.000,1.44645,
5318.000,1.44983,
5317.000,1.45255,
5316.000,1.45536,
5315.000,1.45889,
5314.000,1.46363,
5313.000,1.47004,
5312.000,1.47787,
5311.000,1.48572,
5310.000,1.49201,
5309.000,1.49629,
5308.000,1.49924,
5307.000,1.50152,
5306.000,1.50354,
5305.000,1.50582,
5304.000,1.50878,
5303.000,1.51206,
5302.000,1.51487,
5301.000,1.51723,
5300.000,1.52014,
5299.000,1.52451,
5298.000,1.53041,
5297.000,1.53749,
5296.000,1.54551,
5295.000,1.55405,
5294.000,1.56233,
5293.000,1.56975,
5292.000,1.5763,
5291.000,1.58233,
5290.000,1.58794,
5289.000,1.59297,
5288.000,1.59717,
5287.000,1.60044,
5286.000,1.60301,
5285.000,1.60561,
5284.000,1.60909,
5283.000,1.61387,
5282.000,1.61984,
5281.000,1.62707,
5280.000,1.63592,
5279.000,1.64642,
5278.000,1.65784,
5277.000,1.669,
5276.000,1.67888,
5275.000,1.68688,
5274.000,1.69303,
5273.000,1.69834,
5272.000,1.70426,
5271.000,1.71154,
5270.000,1.71984,
5269.000,1.72879,
5268.000,1.73885,
5267.000,1.75044,
5266.000,1.76278,
5265.000,1.77425,
5264.000,1.78371,
5263.000,1.79102,
5262.000,1.79655,
5261.000,1.8012,
5260.000,1.80671,
5259.000,1.8149,
5258.000,1.82603,
5257.000,1.83839,
5256.000,1.85001,
5255.000,1.86004,
5254.000,1.86877,
5253.000,1.87675,
5252.000,1.88455,
5251.000,1.89308,
5250.000,1.90328,
5249.000,1.91541,
5248.000,1.92874,
5247.000,1.94176,
5246.000,1.95306,
5245.000,1.96237,
5244.000,1.97112,
5243.000,1.98144,
5242.000,1.99418,
5241.000,2.00818,
5240.000,2.02171,
5239.000,2.03404,
5238.000,2.04549,
5237.000,2.05662,
5236.000,2.06812,
5235.000,2.08079,
5234.000,2.095,
5233.000,2.11009,
5232.000,2.12502,
5231.000,2.13936,
5230.000,2.15335,
5229.000,2.16718,
5228.000,2.18081,
5227.000,2.1943,
5226.000,2.20763,
5225.000,2.22032,
5224.000,2.23201,
5223.000,2.24326,
5222.000,2.25526,
5221.000,2.26846,
5220.000,2.28241,
5219.000,2.29665,
5218.000,2.31135,
5217.000,2.32659,
5216.000,2.34222,
5215.000,2.35853,
5214.000,2.376,
5213.000,2.39409,
5212.000,2.41113,
5211.000,2.42633,
5210.000,2.44088,
5209.000,2.45632,
5208.000,2.47259,
5207.000,2.48844,
5206.000,2.50316,
5205.000,2.51711,
5204.000,2.53097,
5203.000,2.54544,
5202.000,2.56144,
5201.000,2.57953,
5200.000,2.59898,
5199.000,2.61816,
5198.000,2.63629,
5197.000,2.65421,
5196.000,2.6731,
5195.000,2.6931,
5194.000,2.71346,
5193.000,2.73346,
5192.000,2.75257,
5191.000,2.77049,
5190.000,2.78761,
5189.000,2.80505,
5188.000,2.82387,
5187.000,2.84408,
5186.000,2.86474,
5185.000,2.88514,
5184.000,2.90541,
5183.000,2.92628,
5182.000,2.94845,
5181.000,2.97196,
5180.000,2.99612,
5179.000,3.01985,
5178.000,3.04229,
5177.000,3.06335,
5176.000,3.08375,
5175.000,3.10447,
5174.000,3.12606,
5173.000,3.14825,
5172.000,3.17034,
5171.000,3.19213,
5170.000,3.21428,
5169.000,3.23765,
5168.000,3.26236,
5167.000,3.28789,
5166.000,3.31372,
5165.000,3.33953,
5164.000,3.36497,
5163.000,3.38978,
5162.000,3.41418,
5161.000,3.43872,
5160.000,3.4639,
5159.000,3.49018,
5158.000,3.51795,
5157.000,3.54698,
5156.000,3.57614,
5155.000,3.60434,
5154.000,3.63184,
5153.000,3.65972,
5152.000,3.68833,
5151.000,3.71703,
5150.000,3.74542,
5149.000,3.77367,
5148.000,3.80173,
5147.000,3.82942,
5146.000,3.85751,
5145.000,3.88742,
5144.000,3.91921,
5143.000,3.95103,
5142.000,3.98143,
5141.000,4.01109,
5140.000,4.04157,
5139.000,4.07335,
5138.000,4.10593,
5137.000,4.13906,
5136.000,4.17277,
5135.000,4.20675,
5134.000,4.2409,
5133.000,4.27583,
5132.000,4.31195,
5131.000,4.34848,
5130.000,4.38444,
5129.000,4.42019,
5128.000,4.45701,
5127.000,4.49551,
5126.000,4.53537,
5125.000,4.57622,
5124.000,4.61757,
5123.000,4.65851,
5122.000,4.69844,
5121.000,4.73796,
5120.000,4.77783,
5119.000,4.81773,
5118.000,4.85714,
5117.000,4.89695,
5116.000,4.93858,
5115.000,4.98184,
5114.000,5.02526,
5113.000,5.06832,
5112.000,5.11198,
5111.000,5.15674,
5110.000,5.20201,
5109.000,5.24749,
5108.000,5.29354,
5107.000,5.33994,
5106.000,5.38573,
5105.000,5.43108,
5104.000,5.47758,
5103.000,5.52598,
5102.000,5.57486,
5101.000,5.62251,
5100.000,5.66899,
5099.000,5.71559,
5098.000,5.76336,
5097.000,5.81304,
5096.000,5.86538,
5095.000,5.92023,
5094.000,5.976,
5093.000,6.03098,
5092.000,6.08482,
5091.000,6.13811,
5090.000,6.19099,
5089.000,6.24323,
5088.000,6.295,
5087.000,6.34683,
5086.000,6.39903,
5085.000,6.45168,
5084.000,6.50509,
5083.000,6.55953,
5082.000,6.61482,
5081.000,6.67048,
5080.000,6.7261,
5079.000,6.78148,
5078.000,6.83665,
5077.000,6.89204,
5076.000,6.94814,
5075.000,7.00493,
5074.000,7.06191,
5073.000,7.11868,
5072.000,7.17508,
5071.000,7.23072,
5070.000,7.28519,
5069.000,7.33888,
5068.000,7.39273,
5067.000,7.44704,
5066.000,7.50105,
5065.000,7.55395,
5064.000,7.6056,
5063.000,7.65625,
5062.000,7.70641,
5061.000,7.75706,
5060.000,7.80895,
5059.000,7.86132,
5058.000,7.91211,
5057.000,7.96007,
5056.000,8.00599,
5055.000,8.05146,
5054.000,8.09719,
5053.000,8.1427,
5052.000,8.18693,
5051.000,8.22868,
5050.000,8.26731,
5049.000,8.30339,
5048.000,8.33822,
5047.000,8.37248,
5046.000,8.40569,
5045.000,8.43712,
5044.000,8.46667,
5043.000,8.4946,
5042.000,8.52115,
5041.000,8.54647,
5040.000,8.57032,
5039.000,8.59171,
5038.000,8.60956,
5037.000,8.62395,
5036.000,8.63604,
5035.000,8.64685,
5034.000,8.65638,
5033.000,8.66423,
5032.000,8.67,
5031.000,8.67335,
5030.000,8.67424,
5029.000,8.67319,
5028.000,8.67056,
5027.000,8.66548,
5026.000,8.65669,
5025.000,8.64426,
5024.000,8.62994,
5023.000,8.61544,
5022.000,8.60124,
5021.000,8.58688,
5020.000,8.57149,
5019.000,8.55387,
5018.000,8.53303,
5017.000,8.50903,
5016.000,8.4827,
5015.000,8.45442,
5014.000,8.42399,
5013.000,8.39166,
5012.000,8.35844,
5011.000,8.32483,
5010.000,8.2904,
5009.000,8.2548,
5008.000,8.21863,
5007.000,8.18276,
5006.000,8.14739,
5005.000,8.11191,
5004.000,8.07529,
5003.000,8.03648,
5002.000,7.99498,
5001.000,7.95143,
5000.000,7.90725,
4999.000,7.86342,
4998.000,7.81977,
4997.000,7.77551,
4996.000,7.73005,
4995.000,7.68322,
4994.000,7.6357,
4993.000,7.58849,
4992.000,7.5421,
4991.000,7.49613,
4990.000,7.44993,
4989.000,7.40332,
4988.000,7.35646,
4987.000,7.3093,
4986.000,7.26171,
4985.000,7.21381,
4984.000,7.16556,
4983.000,7.11656,
4982.000,7.06672,
4981.000,7.01681,
4980.000,6.96778,
4979.000,6.91972,
4978.000,6.87212,
4977.000,6.8247,
4976.000,6.77746,
4975.000,6.73021,
4974.000,6.68263,
4973.000,6.63462,
4972.000,6.58615,
4971.000,6.53715,
4970.000,6.48813,
4969.000,6.44024,
4968.000,6.39404,
4967.000,6.3485,
4966.000,6.3019,
4965.000,6.25354,
4964.000,6.20391,
4963.000,6.15376,
4962.000,6.10387,
4961.000,6.05519,
4960.000,6.00822,
4959.000,5.96243,
4958.000,5.91685,
4957.000,5.87109,
4956.000,5.82495,
4955.000,5.77768,
4954.000,5.72879,
4953.000,5.67937,
4952.000,5.6316,
4951.000,5.58687,
4950.000,5.5448,
4949.000,5.5039,
4948.000,5.46245,
4947.000,5.41902,
4946.000,5.37333,
4945.000,5.32664,
4944.000,5.2805,
4943.000,5.23525,
4942.000,5.19011,
4941.000,5.14474,
4940.000,5.09975,
4939.000,5.05568,
4938.000,5.01244,
4937.000,4.96967,
4936.000,4.92705,
4935.000,4.88416,
4934.000,4.84082,
4933.000,4.79767,
4932.000,4.75551,
4931.000,4.71425,
4930.000,4.67294,
4929.000,4.63117,
4928.000,4.58947,
4927.000,4.54839,
4926.000,4.5077,
4925.000,4.46681,
4924.000,4.42551,
4923.000,4.384,
4922.000,4.34285,
4921.000,4.30273,
4920.000,4.26385,
4919.000,4.22542,
4918.000,4.18632,
4917.000,4.14628,
4916.000,4.10608,
4915.000,4.06646,
4914.000,4.0274,
4913.000,3.98861,
4912.000,3.94993,
4911.000,3.91122,
4910.000,3.87236,
4909.000,3.83355,
4908.000,3.79515,
4907.000,3.75715,
4906.000,3.71935,
4905.000,3.68204,
4904.000,3.64578,
4903.000,3.61025,
4902.000,3.57404,
4901.000,3.53617,
4900.000,3.49715,
4899.000,3.45844,
4898.000,3.42105,
4897.000,3.38524,
4896.000,3.3509,
4895.000,3.3175,
4894.000,3.28409,
4893.000,3.24991,
4892.000,3.21518,
4891.000,3.18074,
4890.000,3.14698,
4889.000,3.11346,
4888.000,3.07965,
4887.000,3.04543,
4886.000,3.01093,
4885.000,2.97639,
4884.000,2.94223,
4883.000,2.90901,
4882.000,2.87695,
4881.000,2.84558,
4880.000,2.81422,
4879.000,2.78262,
4878.000,2.75093,
4877.000,2.71917,
4876.000,2.68719,
4875.000,2.65511,
4874.000,2.62352,
4873.000,2.593,
4872.000,2.56347,
4871.000,2.53436,
4870.000,2.50534,
4869.000,2.4766,
4868.000,2.44847,
4867.000,2.42092,
4866.000,2.39356,
4865.000,2.36584,
4864.000,2.3373,
4863.000,2.30782,
4862.000,2.27793,
4861.000,2.24862,
4860.000,2.22083,
4859.000,2.19493,
4858.000,2.17055,
4857.000,2.14688,
4856.000,2.12299,
4855.000,2.09817,
4854.000,2.0722,
4853.000,2.04555,
4852.000,2.01906,
4851.000,1.99359,
4850.000,1.96955,
4849.000,1.94688,
4848.000,1.92501,
4847.000,1.90324,
4846.000,1.8811,
4845.000,1.85869,
4844.000,1.83654,
4843.000,1.81516,
4842.000,1.79467,
4841.000,1.77464,
4840.000,1.75427,
4839.000,1.73298,
4838.000,1.71094,
4837.000,1.6891,
4836.000,1.66847,
4835.000,1.64942,
4834.000,1.63153,
4833.000,1.61412,
4832.000,1.59671,
4831.000,1.57923,
4830.000,1.56195,
4829.000,1.54534,
4828.000,1.52972,
4827.000,1.51491,
4826.000,1.50016,
4825.000,1.48476,
4824.000,1.46851,
4823.000,1.45175,
4822.000,1.43504,
4821.000,1.4189,
4820.000,1.40379,
4819.000,1.38991,
4818.000,1.37692,
4817.000,1.36419,
4816.000,1.35138,
4815.000,1.33866,
4814.000,1.32636,
4813.000,1.3145,
4812.000,1.30283,
4811.000,1.29116,
4810.000,1.27946,
4809.000,1.26775,
4808.000,1.25616,
4807.000,1.24506,
4806.000,1.23464,
4805.000,1.22456,
4804.000,1.21414,
4803.000,1.2032,
4802.000,1.19233,
4801.000,1.18222,
4800.000,1.17299,
4799.000,1.1642,
4798.000,1.15539,
4797.000,1.14641,
4796.000,1.13757,
4795.000,1.12945,
4794.000,1.12253,
4793.000,1.11657,
4792.000,1.11055,
4791.000,1.10337,
4790.000,1.09492,
4789.000,1.08611,
4788.000,1.07809,
4787.000,1.07132,
4786.000,1.06535,
4785.000,1.05948,
4784.000,1.05343,
4783.000,1.04739,
4782.000,1.04152,
4781.000,1.03564,
4780.000,1.02939,
4779.000,1.02266,
4778.000,1.01559,
4777.000,1.00858,
4776.000,1.00213,
4775.000,0.996709,
4774.000,0.992381,
4773.000,0.98861,
4772.000,0.984653,
4771.000,0.980142,
4770.000,0.975244,
4769.000,0.970346,
4768.000,0.965765,
4767.000,0.961674,
4766.000,0.957923,
4765.000,0.953934,
4764.000,0.949143,
4763.000,0.943662,
4762.000,0.938294,
4761.000,0.933736,
4760.000,0.930017,
4759.000,0.926718,
4758.000,0.92344,
4757.000,0.919944,
4756.000,0.916141,
4755.000,0.91224,
4754.000,0.908703,
4753.000,0.905875,
4752.000,0.903754,
4751.000,0.902165,
4750.000,0.900936,
4749.000,0.899803,
4748.000,0.898398,
4747.000,0.89657,
4746.000,0.894593,
4745.000,0.892876,
4744.000,0.89152,
4743.000,0.890235,
4742.000,0.888601,
4741.000,0.886323,
4740.000,0.88336,
4739.000,0.879989,
4738.000,0.876597,
4737.000,0.873347,
4736.000,0.870217,
4735.000,0.86741,
4734.000,0.865413,
4733.000,0.864445,
4732.000,0.864127,
4731.000,0.863972,
4730.000,0.863986,
4729.000,0.864456,
4728.000,0.865313,
4727.000,0.865982,
4726.000,0.865797,
4725.000,0.864431,
4724.000,0.862176,
4723.000,0.859927,
4722.000,0.858601,
4721.000,0.858315,
4720.000,0.858255,
4719.000,0.85765,
4718.000,0.85673,
4717.000,0.856416,
4716.000,0.85715,
4715.000,0.858368,
4714.000,0.859138,
4713.000,0.858986,
4712.000,0.858069,
4711.000,0.856892,
4710.000,0.855996,
4709.000,0.855758,
4708.000,0.856281,
4707.000,0.857503,
4706.000,0.859317,
4705.000,0.861429,
4704.000,0.863269,
4703.000,0.86436,
4702.000,0.864825,
4701.000,0.865203,
4700.000,0.865772,
4699.000,0.86633,
4698.000,0.866789,
4697.000,0.867661,
4696.000,0.869642,
4695.000,0.872807,
4694.000,0.876391,
4693.000,0.879386,
4692.000,0.881275,
4691.000,0.882273,
4690.000,0.882974,
4689.000,0.883814,
4688.000,0.884918,
4687.000,0.886382,
4686.000,0.888478,
4685.000,0.891312,
4684.000,0.894332,
4683.000,0.896582,
4682.000,0.897676,
4681.000,0.89842,
4680.000,0.900242,
4679.000,0.904021,
4678.000,0.909501,
4677.000,0.915624,
4676.000,0.921285,
4675.000,0.925874,
4674.000,0.929374,
4673.000,0.932143,
4672.000,0.934569,
4671.000,0.936807,
4670.000,0.938726,
4669.000,0.940045,
4668.000,0.940658,
4667.000,0.941044,
4666.000,0.942285,
4665.000,0.945393,
4664.000,0.950402,
4663.000,0.956219,
4662.000,0.961572,
4661.000,0.966057,
4660.000,0.970169,
4659.000,0.974454,
4658.000,0.978851,
4657.000,0.982914,
4656.000,0.986498,
4655.000,0.990082,
4654.000,0.994412,
4653.000,0.99986,
4652.000,1.00612,
4651.000,1.01251,
4650.000,1.01854,
4649.000,1.0241,
4648.000,1.02942,
4647.000,1.03471,
4646.000,1.04024,
4645.000,1.04629,
4644.000,1.05307,
4643.000,1.06048,
4642.000,1.06817,
4641.000,1.07576,
4640.000,1.08299,
4639.000,1.08973,
4638.000,1.09592,
4637.000,1.10155,
4636.000,1.10668,
4635.000,1.11145,
4634.000,1.11613,
4633.000,1.12117,
4632.000,1.12702,
4631.000,1.13398,
4630.000,1.14216,
4629.000,1.15141,
4628.000,1.16126,
4627.000,1.17098,
4626.000,1.18002,
4625.000,1.18833,
4624.000,1.19623,
4623.000,1.20387,
4622.000,1.21119,
4621.000,1.21824,
4620.000,1.2255,
4619.000,1.23346,
4618.000,1.24216,
4617.000,1.25113,
4616.000,1.2597,
4615.000,1.26736,
4614.000,1.27408,
4613.000,1.28044,
4612.000,1.28721,
4611.000,1.2948,
4610.000,1.30294,
4609.000,1.31128,
4608.000,1.31988,
4607.000,1.3292,
4606.000,1.33953,
4605.000,1.3506,
4604.000,1.36182,
4603.000,1.37267,
4602.000,1.38294,
4601.000,1.39285,
4600.000,1.40284,
4599.000,1.41317,
4598.000,1.42367,
4597.000,1.43392,
4596.000,1.44373,
4595.000,1.45339,
4594.000,1.46342,
4593.000,1.4742,
4592.000,1.48578,
4591.000,1.49795,
4590.000,1.51034,
4589.000,1.52253,
4588.000,1.53428,
4587.000,1.54555,
4586.000,1.55655,
4585.000,1.56751,
4584.000,1.57861,
4583.000,1.5899,
4582.000,1.60143,
4581.000,1.61342,
4580.000,1.62618,
4579.000,1.63997,
4578.000,1.65471,
4577.000,1.66999,
4576.000,1.68519,
4575.000,1.6998,
4574.000,1.71355,
4573.000,1.72648,
4572.000,1.73876,
4571.000,1.75049,
4570.000,1.76189,
4569.000,1.77348,
4568.000,1.78604,
4567.000,1.79995,
4566.000,1.81491,
4565.000,1.83016,
4564.000,1.8451,
4563.000,1.8597,
4562.000,1.87438,
4561.000,1.88966,
4560.000,1.90584,
4559.000,1.92274,
4558.000,1.93982,
4557.000,1.95667,
4556.000,1.97326,
4555.000,1.98986,
4554.000,2.00652,
4553.000,2.02291,
4552.000,2.03874,
4551.000,2.05417,
4550.000,2.06993,
4549.000,2.0867,
4548.000,2.1045,
4547.000,2.12264,
4546.000,2.14023,
4545.000,2.15706,
4544.000,2.17371,
4543.000,2.19097,
4542.000,2.20906,
4541.000,2.22764,
4540.000,2.24645,
4539.000,2.26571,
4538.000,2.28576,
4537.000,2.30657,
4536.000,2.32762,
4535.000,2.34838,
4534.000,2.36878,
4533.000,2.38904,
4532.000,2.40927,
4531.000,2.42934,
4530.000,2.44921,
4529.000,2.4692,
4528.000,2.48987,
4527.000,2.51157,
4526.000,2.53435,
4525.000,2.55794,
4524.000,2.5818,
4523.000,2.60509,
4522.000,2.62706,
4521.000,2.64778,
4520.000,2.66843,
4519.000,2.69069,
4518.000,2.71544,
4517.000,2.74193,
4516.000,2.76835,
4515.000,2.79327,
4514.000,2.81689,
4513.000,2.84076,
4512.000,2.86638,
4511.000,2.89403,
4510.000,2.92281,
4509.000,2.95168,
4508.000,2.98028,
4507.000,3.00873,
4506.000,3.03724,
4505.000,3.06577,
4504.000,3.09414,
4503.000,3.1223,
4502.000,3.15054,
4501.000,3.1794,
4500.000,3.20931,
4499.000,3.24029,
4498.000,3.27202,
4497.000,3.30408,
4496.000,3.33609,
4495.000,3.36779,
4494.000,3.39925,
4493.000,3.43098,
4492.000,3.46366,
4491.000,3.49763,
4490.000,3.53272,
4489.000,3.56836,
4488.000,3.604,
4487.000,3.63939,
4486.000,3.67473,
4485.000,3.71039,
4484.000,3.7465,
4483.000,3.78274,
4482.000,3.81893,
4481.000,3.85553,
4480.000,3.89338,
4479.000,3.93296,
4478.000,3.97406,
4477.000,4.01604,
4476.000,4.05822,
4475.000,4.10006,
4474.000,4.14123,
4473.000,4.1819,
4472.000,4.22264,
4471.000,4.26416,
4470.000,4.30686,
4469.000,4.35057,
4468.000,4.39454,
4467.000,4.43812,
4466.000,4.48144,
4465.000,4.52544,
4464.000,4.57086,
4463.000,4.61744,
4462.000,4.66432,
4461.000,4.71115,
4460.000,4.75823,
4459.000,4.80589,
4458.000,4.85392,
4457.000,4.90187,
4456.000,4.94945,
4455.000,4.99675,
4454.000,5.0441,
4453.000,5.0918,
4452.000,5.13982,
4451.000,5.18799,
4450.000,5.23645,
4449.000,5.28582,
4448.000,5.33641,
4447.000,5.38753,
4446.000,5.43792,
4445.000,5.48684,
4444.000,5.53455,
4443.000,5.58167,
4442.000,5.62873,
4441.000,5.67596,
4440.000,5.72321,
4439.000,5.77001,
4438.000,5.81608,
4437.000,5.8617,
4436.000,5.90732,
4435.000,5.95283,
4434.000,5.99767,
4433.000,6.04154,
4432.000,6.08463,
4431.000,6.12714,
4430.000,6.16885,
4429.000,6.20924,
4428.000,6.24789,
4427.000,6.28465,
4426.000,6.3197,
4425.000,6.3532,
4424.000,6.38477,
4423.000,6.41355,
4422.000,6.43927,
4421.000,6.46297,
4420.000,6.48621,
4419.000,6.50941,
4418.000,6.53154,
4417.000,6.55126,
4416.000,6.56826,
4415.000,6.58309,
4414.000,6.59629,
4413.000,6.60746,
4412.000,6.61543,
4411.000,6.61925,
4410.000,6.61933,
4409.000,6.61725,
4408.000,6.61436,
4407.000,6.61071,
4406.000,6.60546,
4405.000,6.59788,
4404.000,6.5877,
4403.000,6.57466,
4402.000,6.55863,
4401.000,6.54001,
4400.000,6.51979,
4399.000,6.49878,
4398.000,6.47712,
4397.000,6.45434,
4396.000,6.42975,
4395.000,6.40295,
4394.000,6.37418,
4393.000,6.34414,
4392.000,6.3131,
4391.000,6.28052,
4390.000,6.2457,
4389.000,6.20873,
4388.000,6.17053,
4387.000,6.13211,
4386.000,6.0939,
4385.000,6.05576,
4384.000,6.01718,
4383.000,5.97764,
4382.000,5.93709,
4381.000,5.89596,
4380.000,5.85469,
4379.000,5.8133,
4378.000,5.77164,
4377.000,5.72987,
4376.000,5.68818,
4375.000,5.6464,
4374.000,5.60412,
4373.000,5.56132,
4372.000,5.51848,
4371.000,5.47626,
4370.000,5.43515,
4369.000,5.39541,
4368.000,5.35697,
4367.000,5.31946,
4366.000,5.28246,
4365.000,5.24571,
4364.000,5.20901,
4363.000,5.17212,
4362.000,5.135,
4361.000,5.09795,
4360.000,5.06141,
4359.000,5.02544,
4358.000,4.98977,
4357.000,4.95405,
4356.000,4.91792,
4355.000,4.88107,
4354.000,4.84338,
4353.000,4.8051,
4352.000,4.76669,
4351.000,4.72868,
4350.000,4.69145,
4349.000,4.65509,
4348.000,4.61911,
4347.000,4.58273,
4346.000,4.54566,
4345.000,4.50837,
4344.000,4.47147,
4343.000,4.43477,
4342.000,4.39755,
4341.000,4.35946,
4340.000,4.32108,
4339.000,4.28347,
4338.000,4.24736,
4337.000,4.21273,
4336.000,4.17888,
4335.000,4.14472,
4334.000,4.1095,
4333.000,4.07305,
4332.000,4.03574,
4331.000,3.99804,
4330.000,3.9603,
4329.000,3.92255,
4328.000,3.88453,
4327.000,3.84594,
4326.000,3.80692,
4325.000,3.76824,
4324.000,3.73066,
4323.000,3.69419,
4322.000,3.65807,
4321.000,3.62133,
4320.000,3.58337,
4319.000,3.54416,
4318.000,3.5044,
4317.000,3.46526,
4316.000,3.42773,
4315.000,3.39177,
4314.000,3.35645,
4313.000,3.3208,
4312.000,3.28461,
4311.000,3.24843,
4310.000,3.21296,
4309.000,3.17856,
4308.000,3.14501,
4307.000,3.11163,
4306.000,3.07763,
4305.000,3.0426,
4304.000,3.00676,
4303.000,2.97093,
4302.000,2.93603,
4301.000,2.90254,
4300.000,2.87015,
4299.000,2.83797,
4298.000,2.80531,
4297.000,2.77215,
4296.000,2.73894,
4295.000,2.70583,
4294.000,2.67255,
4293.000,2.63888,
4292.000,2.60513,
4291.000,2.57192,
4290.000,2.5396,
4289.000,2.50798,
4288.000,2.47655,
4287.000,2.44503,
4286.000,2.41345,
4285.000,2.38211,
4284.000,2.35128,
4283.000,2.32113,
4282.000,2.29184,
4281.000,2.26363,
4280.000,2.23654,
4279.000,2.21012,
4278.000,2.1836,
4277.000,2.15655,
4276.000,2.12935,
4275.000,2.1029,
4274.000,2.07766,
4273.000,2.05312,
4272.000,2.02833,
4271.000,2.00259,
4270.000,1.97596,
4269.000,1.94897,
4268.000,1.9222,
4267.000,1.89602,
4266.000,1.87049,
4265.000,1.84546,
4264.000,1.82085,
4263.000,1.79678,
4262.000,1.77351,
4261.000,1.7511,
4260.000,1.72919,
4259.000,1.7072,
4258.000,1.68467,
4257.000,1.66148,
4256.000,1.63775,
4255.000,1.61373,
4254.000,1.58975,
4253.000,1.5664,
4252.000,1.54426,
4251.000,1.52351,
4250.000,1.50352,
4249.000,1.48333,
4248.000,1.46243,
4247.000,1.44117,
4246.000,1.42039,
4245.000,1.40054,
4244.000,1.38144,
4243.000,1.36255,
4242.000,1.34352,
4241.000,1.3243,
4240.000,1.30499,
4239.000,1.28561,
4238.000,1.26619,
4237.000,1.24692,
4236.000,1.2282,
4235.000,1.21033,
4234.000,1.19318,
4233.000,1.17642,
4232.000,1.15991,
4231.000,1.14401,
4230.000,1.12911,
4229.000,1.11509,
4228.000,1.10136,
4227.000,1.08739,
4226.000,1.07312,
4225.000,1.05874,
4224.000,1.04436,
4223.000,1.03009,
4222.000,1.01623,
4221.000,1.00324,
4220.000,0.991379,
4219.000,0.980398,
4218.000,0.969671,
4217.000,0.958669,
4216.000,0.947285,
4215.000,0.935757,
4214.000,0.924331,
4213.000,0.913131,
4212.000,0.902304,
4211.000,0.892115,
4210.000,0.882759,
4209.000,0.874083,
4208.000,0.865606,
4207.000,0.856902,
4206.000,0.847933,
4205.000,0.838988,
4204.000,0.83031,
4203.000,0.821878,
4202.000,0.813547,
4201.000,0.805319,
4200.000,0.797366,
4199.000,0.789769,
4198.000,0.782377,
4197.000,0.775045,
4196.000,0.767897,
4195.000,0.761166,
4194.000,0.754742,
4193.000,0.748111,
4192.000,0.740907,
4191.000,0.733389,
4190.000,0.726192,
4189.000,0.719639,
4188.000,0.713467,
4187.000,0.707302,
4186.000,0.701224,
4185.000,0.695746,
4184.000,0.691201,
4183.000,0.687265,
4182.000,0.683122,
4181.000,0.678132,
4180.000,0.672296,
4179.000,0.66612,
4178.000,0.660104,
4177.000,0.654481,
4176.000,0.649358,
4175.000,0.644912,
4174.000,0.64126,
4173.000,0.63818,
4172.000,0.635094,
4171.000,0.631418,
4170.000,0.626924,
4169.000,0.621819,
4168.000,0.61654,
4167.000,0.611507,
4166.000,0.60699,
4165.000,0.603058,
4164.000,0.599531,
4163.000,0.595981,
4162.000,0.591951,
4161.000,0.587375,
4160.000,0.582782,
4159.000,0.578957,
4158.000,0.576289,
4157.000,0.574468,
4156.000,0.572846,
4155.000,0.570997,
4154.000,0.568884,
4153.000,0.566525,
4152.000,0.563712,
4151.000,0.560148,
4150.000,0.555927,
4149.000,0.551739,
4148.000,0.548448,
4147.000,0.546311,
4146.000,0.544684,
4145.000,0.542615,
4144.000,0.539773,
4143.000,0.536725,
4142.000,0.534315,
4141.000,0.532876,
4140.000,0.532056,
4139.000,0.531212,
4138.000,0.529824,
4137.000,0.527659,
4136.000,0.524771,
4135.000,0.521441,
4134.000,0.518046,
4133.000,0.514909,
4132.000,0.512232,
4131.000,0.510117,
4130.000,0.508553,
4129.000,0.507332,
4128.000,0.506099,
4127.000,0.504636,
4126.000,0.503156,
4125.000,0.502252,
4124.000,0.502394,
4123.000,0.503348,
4122.000,0.504127,
4121.000,0.503632,
4120.000,0.501469,
4119.000,0.498205,
4118.000,0.494932,
4117.000,0.492595,
4116.000,0.491529,
4115.000,0.491328,
4114.000,0.491093,
4113.000,0.490024,
4112.000,0.488092,
4111.000,0.486193,
4110.000,0.485462,
4109.000,0.486228,
4108.000,0.487619,
4107.000,0.488233,
4106.000,0.487293,
4105.000,0.485197,
4104.000,0.483062,
4103.000,0.481761,
4102.000,0.481388,
4101.000,0.481483,
4100.000,0.481533,
4099.000,0.481258,
4098.000,0.480607,
4097.000,0.479716,
4096.000,0.478883,
4095.000,0.478431,
4094.000,0.478513,
4093.000,0.479026,
4092.000,0.479686,
4091.000,0.480127,
4090.000,0.480033,
4089.000,0.479339,
4088.000,0.478364,
4087.000,0.477655,
4086.000,0.477623,
4085.000,0.478282,
4084.000,0.479313,
4083.000,0.480287,
4082.000,0.480831,
4081.000,0.480775,
4080.000,0.480247,
4079.000,0.479592,
4078.000,0.47912,
4077.000,0.479,
4076.000,0.479358,
4075.000,0.480287,
4074.000,0.481625,
4073.000,0.482855,
4072.000,0.483489,
4071.000,0.483588,
4070.000,0.483766,
4069.000,0.484568,
4068.000,0.485861,
4067.000,0.486976,
4066.000,0.487341,
4065.000,0.486921,
4064.000,0.486069,
4063.000,0.485177,
4062.000,0.484602,
4061.000,0.484797,
4060.000,0.486157,
4059.000,0.488533,
4058.000,0.491045,
4057.000,0.492649,
4056.000,0.493066,
4055.000,0.493091,
4054.000,0.493866,
4053.000,0.495818,
4052.000,0.498412,
4051.000,0.500813,
4050.000,0.502689,
4049.000,0.504291,
4048.000,0.505892,
4047.000,0.50741,
4046.000,0.508634,
4045.000,0.509644,
4044.000,0.510839,
4043.000,0.512509,
4042.000,0.514548,
4041.000,0.516618,
4040.000,0.518504,
4039.000,0.520263,
4038.000,0.522138,
4037.000,0.524393,
4036.000,0.527128,
4035.000,0.530123,
4034.000,0.53298,
4033.000,0.535541,
4032.000,0.538115,
4031.000,0.541078,
4030.000,0.54422,
4029.000,0.546816,
4028.000,0.548452,
4027.000,0.549655,
4026.000,0.551427,
4025.000,0.554188,
4024.000,0.557436,
4023.000,0.560457,
4022.000,0.563181,
4021.000,0.566211,
4020.000,0.570057,
4019.000,0.574526,
4018.000,0.578894,
4017.000,0.582573,
4016.000,0.585578,
4015.000,0.588378,
4014.000,0.591394,
4013.000,0.59472,
4012.000,0.598277,
4011.000,0.602083,
4010.000,0.606236,
4009.000,0.610639,
4008.000,0.614888,
4007.000,0.618552,
4006.000,0.621611,
4005.000,0.624595,
4004.000,0.628256,
4003.000,0.633038,
4002.000,0.63873,
4001.000,0.644554,
4000.000,0.649681,
3999.000,0.653804,
3998.000,0.657336,
3997.000,0.661104,
3996.000,0.665778,
3995.000,0.671515,
3994.000,0.677948,
3993.000,0.684413,
3992.000,0.690333,
3991.000,0.695583,
3990.000,0.700622,
3989.000,0.706106,
3988.000,0.712243,
3987.000,0.71855,
3986.000,0.72429,
3985.000,0.729154,
3984.000,0.733457,
3983.000,0.737751,
3982.000,0.742391,
3981.000,0.747443,
3980.000,0.752867,
3979.000,0.758653,
3978.000,0.764837,
3977.000,0.771498,
3976.000,0.778722,
3975.000,0.786453,
3974.000,0.794363,
3973.000,0.80195,
3972.000,0.808942,
3971.000,0.81562,
3970.000,0.822635,
3969.000,0.830372,
3968.000,0.838547,
3967.000,0.846502,
3966.000,0.853925,
3965.000,0.861194,
3964.000,0.868959,
3963.000,0.877462,
3962.000,0.886287,
3961.000,0.894654,
3960.000,0.901939,
3959.000,0.908106,
3958.000,0.913883,
3957.000,0.920503,
3956.000,0.928934,
3955.000,0.939067,
3954.000,0.949689,
3953.000,0.959393,
3952.000,0.967636,
3951.000,0.974933,
3950.000,0.982138,
3949.000,0.989682,
3948.000,0.997469,
3947.000,1.00532,
3946.000,1.01338,
3945.000,1.02201,
3944.000,1.03139,
3943.000,1.04121,
3942.000,1.05095,
3941.000,1.06043,
3940.000,1.07013,
3939.000,1.08086,
3938.000,1.093,
3937.000,1.10606,
3936.000,1.11903,
3935.000,1.13116,
3934.000,1.14241,
3933.000,1.15314,
3932.000,1.16354,
3931.000,1.1735,
3930.000,1.18295,
3929.000,1.19239,
3928.000,1.20275,
3927.000,1.21476,
3926.000,1.22842,
3925.000,1.24284,
3924.000,1.25689,
3923.000,1.27002,
3922.000,1.28248,
3921.000,1.29495,
3920.000,1.30801,
3919.000,1.32184,
3918.000,1.33602,
3917.000,1.34961,
3916.000,1.362,
3915.000,1.37365,
3914.000,1.38589,
3913.000,1.39967,
3912.000,1.41484,
3911.000,1.43062,
3910.000,1.44656,
3909.000,1.46284,
3908.000,1.47999,
3907.000,1.49837,
3906.000,1.51766,
3905.000,1.53662,
3904.000,1.55352,
3903.000,1.56745,
3902.000,1.5792,
3901.000,1.59042,
3900.000,1.60202,
3899.000,1.61384,
3898.000,1.62589,
3897.000,1.63914,
3896.000,1.6549,
3895.000,1.67383,
3894.000,1.69564,
3893.000,1.71908,
3892.000,1.74183,
3891.000,1.76155,
3890.000,1.77797,
3889.000,1.79378,
3888.000,1.81226,
3887.000,1.83366,
3886.000,1.85461,
3885.000,1.87164,
3884.000,1.88529,
3883.000,1.89991,
3882.000,1.91895,
3881.000,1.94159,
3880.000,1.96418,
3879.000,1.98429,
3878.000,2.00301,
3877.000,2.02332,
3876.000,2.04685,
3875.000,2.07257,
3874.000,2.0983,
3873.000,2.12273,
3872.000,2.1458,
3871.000,2.16743,
3870.000,2.18681,
3869.000,2.20423,
3868.000,2.22262,
3867.000,2.24548,
3866.000,2.2732,
3865.000,2.30264,
3864.000,2.33042,
3863.000,2.35585,
3862.000,2.38045,
3861.000,2.40588,
3860.000,2.43288,
3859.000,2.4616,
3858.000,2.49211,
3857.000,2.52448,
3856.000,2.55846,
3855.000,2.59251,
3854.000,2.62302,
3853.000,2.6461,
3852.000,2.66235,
3851.000,2.67863,
3850.000,2.70236,
3849.000,2.73526,
3848.000,2.77412,
3847.000,2.81511,
3846.000,2.85578,
3845.000,2.89519,
3844.000,2.93322,
3843.000,2.9701,
3842.000,3.00634,
3841.000,3.04266,
3840.000,3.07947,
3839.000,3.11614,
3838.000,3.15156,
3837.000,3.18527,
3836.000,3.21807,
3835.000,3.25189,
3834.000,3.28861,
3833.000,3.32851,
3832.000,3.37002,
3831.000,3.4113,
3830.000,3.45184,
3829.000,3.49241,
3828.000,3.53354,
3827.000,3.57492,
3826.000,3.61598,
3825.000,3.65683,
3824.000,3.6983,
3823.000,3.74056,
3822.000,3.782,
3821.000,3.82021,
3820.000,3.85473,
3819.000,3.88849,
3818.000,3.92516,
3817.000,3.965,
3816.000,4.00539,
3815.000,4.04506,
3814.000,4.0852,
3813.000,4.12712,
3812.000,4.17,
3811.000,4.21199,
3810.000,4.25261,
3809.000,4.2923,
3808.000,4.33095,
3807.000,4.36793,
3806.000,4.40271,
3805.000,4.43546,
3804.000,4.46712,
3803.000,4.49804,
3802.000,4.52764,
3801.000,4.55571,
3800.000,4.58274,
3799.000,4.60954,
3798.000,4.63632,
3797.000,4.66202,
3796.000,4.68605,
3795.000,4.70903,
3794.000,4.73113,
3793.000,4.75154,
3792.000,4.76925,
3791.000,4.78421,
3790.000,4.797,
3789.000,4.80752,
3788.000,4.81518,
3787.000,4.81992,
3786.000,4.82221,
3785.000,4.82233,
3784.000,4.82044,
3783.000,4.81695,
3782.000,4.81213,
3781.000,4.80544,
3780.000,4.7963,
3779.000,4.78526,
3778.000,4.77339,
3777.000,4.76059,
3776.000,4.74565,
3775.000,4.72783,
3774.000,4.70768,
3773.000,4.68619,
3772.000,4.66367,
3771.000,4.63989,
3770.000,4.61504,
3769.000,4.58956,
3768.000,4.56347,
3767.000,4.53616,
3766.000,4.50726,
3765.000,4.47737,
3764.000,4.44756,
3763.000,4.41809,
3762.000,4.38795,
3761.000,4.35619,
3760.000,4.32336,
3759.000,4.29112,
3758.000,4.25999,
3757.000,4.2285,
3756.000,4.19481,
3755.000,4.15834,
3754.000,4.1191,
3753.000,4.0774,
3752.000,4.0349,
3751.000,3.99457,
3750.000,3.95807,
3749.000,3.92385,
3748.000,3.88902,
3747.000,3.85207,
3746.000,3.81289,
3745.000,3.77308,
3744.000,3.73677,
3743.000,3.70638,
3742.000,3.67859,
3741.000,3.64797,
3740.000,3.61205,
3739.000,3.57296,
3738.000,3.53424,
3737.000,3.49673,
3736.000,3.45988,
3735.000,3.42389,
3734.000,3.38888,
3733.000,3.35394,
3732.000,3.31838,
3731.000,3.28296,
3730.000,3.24862,
3729.000,3.21447,
3728.000,3.17894,
3727.000,3.14229,
3726.000,3.10622,
3725.000,3.07124,
3724.000,3.03615,
3723.000,3,
3722.000,2.96312,
3721.000,2.92651,
3720.000,2.89073,
3719.000,2.85563,
3718.000,2.82053,
3717.000,2.78453,
3716.000,2.74685,
3715.000,2.7073,
3714.000,2.66632,
3713.000,2.62516,
3712.000,2.58625,
3711.000,2.55157,
3710.000,2.52064,
3709.000,2.49055,
3708.000,2.45885,
3707.000,2.42544,
3706.000,2.39132,
3705.000,2.35719,
3704.000,2.3233,
3703.000,2.29009,
3702.000,2.25773,
3701.000,2.22551,
3700.000,2.19243,
3699.000,2.15828,
3698.000,2.12362,
3697.000,2.08904,
3696.000,2.05478,
3695.000,2.02081,
3694.000,1.98669,
3693.000,1.9519,
3692.000,1.91657,
3691.000,1.88146,
3690.000,1.84712,
3689.000,1.81376,
3688.000,1.78214,
3687.000,1.75311,
3686.000,1.72605,
3685.000,1.69911,
3684.000,1.67096,
3683.000,1.6419,
3682.000,1.61288,
3681.000,1.58421,
3680.000,1.55576,
3679.000,1.52753,
3678.000,1.49944,
3677.000,1.47121,
3676.000,1.44312,
3675.000,1.4165,
3674.000,1.39201,
3673.000,1.36859,
3672.000,1.34489,
3671.000,1.32094,
3670.000,1.29796,
3669.000,1.27653,
3668.000,1.2556,
3667.000,1.234,
3666.000,1.21164,
3665.000,1.18924,
3664.000,1.16771,
3663.000,1.14748,
3662.000,1.12824,
3661.000,1.10908,
3660.000,1.08929,
3659.000,1.06889,
3658.000,1.04853,
3657.000,1.0291,
3656.000,1.01134,
3655.000,0.99518,
3654.000,0.979373,
3653.000,0.96237,
3652.000,0.943816,
3651.000,0.924962,
3650.000,0.907507,
3649.000,0.891998,
3648.000,0.877869,
3647.000,0.864622,
3646.000,0.852111,
3645.000,0.840117,
3644.000,0.82829,
3643.000,0.816407,
3642.000,0.804386,
3641.000,0.792171,
3640.000,0.779898,
3639.000,0.767952,
3638.000,0.756556,
3637.000,0.745524,
3636.000,0.734611,
3635.000,0.723797,
3634.000,0.713054,
3633.000,0.702229,
3632.000,0.691405,
3631.000,0.68103,
3630.000,0.671452,
3629.000,0.662525,
3628.000,0.653775,
3627.000,0.644863,
3626.000,0.635789,
3625.000,0.626761,
3624.000,0.618205,
3623.000,0.610564,
3622.000,0.603735,
3621.000,0.597133,
3620.000,0.590429,
3619.000,0.583785,
3618.000,0.577329,
3617.000,0.570917,
3616.000,0.564512,
3615.000,0.558214,
3614.000,0.551782,
3613.000,0.544779,
3612.000,0.53739,
3611.000,0.53053,
3610.000,0.524804,
3609.000,0.519829,
3608.000,0.514866,
3607.000,0.509589,
3606.000,0.503971,
3605.000,0.498003,
3604.000,0.491954,
3603.000,0.486519,
3602.000,0.482196,
3601.000,0.478685,
3600.000,0.475162,
3599.000,0.471051,
3598.000,0.466308,
3597.000,0.461179,
3596.000,0.456004,
3595.000,0.451054,
3594.000,0.446354,
3593.000,0.441837,
3592.000,0.437666,
3591.000,0.434055,
3590.000,0.430766,
3589.000,0.427167,
3588.000,0.422949,
3587.000,0.418447,
3586.000,0.414021,
3585.000,0.409579,
3584.000,0.405002,
3583.000,0.400647,
3582.000,0.397002,
3581.000,0.394107,
3580.000,0.391561,
3579.000,0.389017,
3578.000,0.386411,
3577.000,0.383804,
3576.000,0.38123,
3575.000,0.378664,
3574.000,0.376079,
3573.000,0.37348,
3572.000,0.370845,
3571.000,0.367932,
3570.000,0.364339,
3569.000,0.359948,
3568.000,0.355251,
3567.000,0.351004,
3566.000,0.347637,
3565.000,0.345211,
3564.000,0.343659,
3563.000,0.342598,
3562.000,0.341174,
3561.000,0.338773,
3560.000,0.335864,
3559.000,0.333589,
3558.000,0.332413,
3557.000,0.331657,
3556.000,0.330437,
3555.000,0.32859,
3554.000,0.326496,
3553.000,0.324438,
3552.000,0.322409,
3551.000,0.320256,
3550.000,0.317841,
3549.000,0.315256,
3548.000,0.312908,
3547.000,0.311163,
3546.000,0.309897,
3545.000,0.308672,
3544.000,0.307311,
3543.000,0.305904,
3542.000,0.304324,
3541.000,0.302272,
3540.000,0.299867,
3539.000,0.297736,
3538.000,0.296355,
3537.000,0.295586,
3536.000,0.29491,
3535.000,0.293828,
3534.000,0.292094,
3533.000,0.289917,
3532.000,0.287943,
3531.000,0.286668,
3530.000,0.285846,
3529.000,0.284852,
3528.000,0.283488,
3527.000,0.281969,
3526.000,0.280281,
3525.000,0.278222,
3524.000,0.276105,
3523.000,0.274686,
3522.000,0.274189,
3521.000,0.274011,
3520.000,0.273642,
3519.000,0.273238,
3518.000,0.273012,
3517.000,0.272653,
3516.000,0.271796,
3515.000,0.270622,
3514.000,0.269536,
3513.000,0.268548,
3512.000,0.267353,
3511.000,0.265845,
3510.000,0.264239,
3509.000,0.262791,
3508.000,0.26162,
3507.000,0.260694,
3506.000,0.259886,
3505.000,0.259173,
3504.000,0.258768,
3503.000,0.258795,
3502.000,0.258834,
3501.000,0.258201,
3500.000,0.256744,
3499.000,0.255038,
3498.000,0.25367,
3497.000,0.252707,
3496.000,0.251985,
3495.000,0.251499,
3494.000,0.251262,
3493.000,0.251064,
3492.000,0.250661,
3491.000,0.250041,
3490.000,0.249363,
3489.000,0.248772,
3488.000,0.248346,
3487.000,0.248026,
3486.000,0.247579,
3485.000,0.246838,
3484.000,0.246002,
3483.000,0.245478,
3482.000,0.24538,
3481.000,0.245461,
3480.000,0.245511,
3479.000,0.245535,
3478.000,0.24554,
3477.000,0.245474,
3476.000,0.245433,
3475.000,0.245586,
3474.000,0.245834,
3473.000,0.245874,
3472.000,0.245603,
3471.000,0.245135,
3470.000,0.244502,
3469.000,0.243704,
3468.000,0.243016,
3467.000,0.242799,
3466.000,0.242914,
3465.000,0.242855,
3464.000,0.242579,
3463.000,0.242652,
3462.000,0.243394,
3461.000,0.24435,
3460.000,0.244865,
3459.000,0.24479,
3458.000,0.24436,
3457.000,0.243773,
3456.000,0.24323,
3455.000,0.243067,
3454.000,0.243467,
3453.000,0.244189,
3452.000,0.24482,
3451.000,0.245153,
3450.000,0.245178,
3449.000,0.244931,
3448.000,0.244563,
3447.000,0.24436,
3446.000,0.244467,
3445.000,0.244706,
3444.000,0.244785,
3443.000,0.244602,
3442.000,0.244293,
3441.000,0.244152,
3440.000,0.244513,
3439.000,0.245498,
3438.000,0.246827,
3437.000,0.248073,
3436.000,0.24904,
3435.000,0.249687,
3434.000,0.249805,
3433.000,0.249233,
3432.000,0.248426,
3431.000,0.248317,
3430.000,0.249383,
3429.000,0.251138,
3428.000,0.252693,
3427.000,0.253511,
3426.000,0.253516,
3425.000,0.252914,
3424.000,0.252223,
3423.000,0.252167,
3422.000,0.25315,
3421.000,0.254855,
3420.000,0.256497,
3419.000,0.257443,
3418.000,0.257589,
3417.000,0.257366,
3416.000,0.257453,
3415.000,0.258222,
3414.000,0.259377,
3413.000,0.260293,
3412.000,0.260721,
3411.000,0.2609,
3410.000,0.261006,
3409.000,0.260926,
3408.000,0.2607,
3407.000,0.26082,
3406.000,0.2618,
3405.000,0.263639,
3404.000,0.265862,
3403.000,0.267877,
3402.000,0.269187,
3401.000,0.269531,
3400.000,0.269111,
3399.000,0.268617,
3398.000,0.268855,
3397.000,0.270289,
3396.000,0.272809,
3395.000,0.275722,
3394.000,0.278078,
3393.000,0.279358,
3392.000,0.279959,
3391.000,0.280827,
3390.000,0.28256,
3389.000,0.28503,
3388.000,0.287778,
3387.000,0.290434,
3386.000,0.292774,
3385.000,0.294738,
3384.000,0.296496,
3383.000,0.298213,
3382.000,0.299754,
3381.000,0.300917,
3380.000,0.301906,
3379.000,0.303169,
3378.000,0.304794,
3377.000,0.306503,
3376.000,0.308274,
3375.000,0.310439,
3374.000,0.313022,
3373.000,0.315524,
3372.000,0.31763,
3371.000,0.319665,
3370.000,0.322049,
3369.000,0.324708,
3368.000,0.327323,
3367.000,0.329827,
3366.000,0.33228,
3365.000,0.3346,
3364.000,0.336803,
3363.000,0.339226,
3362.000,0.342143,
3361.000,0.345315,
3360.000,0.348264,
3359.000,0.35087,
3358.000,0.353393,
3357.000,0.356078,
3356.000,0.359044,
3355.000,0.362448,
3354.000,0.366389,
3353.000,0.370627,
3352.000,0.374613,
3351.000,0.377839,
3350.000,0.380127,
3349.000,0.381773,
3348.000,0.383541,
3347.000,0.386284,
3346.000,0.390272,
3345.000,0.394949,
3344.000,0.399502,
3343.000,0.403599,
3342.000,0.407425,
3341.000,0.411204,
3340.000,0.41499,
3339.000,0.418834,
3338.000,0.422901,
3337.000,0.427336,
3336.000,0.432097,
3335.000,0.436956,
3334.000,0.441619,
3333.000,0.445966,
3332.000,0.450194,
3331.000,0.454641,
3330.000,0.459427,
3329.000,0.464392,
3328.000,0.469392,
3327.000,0.474475,
3326.000,0.479689,
3325.000,0.484913,
3324.000,0.490006,
3323.000,0.494961,
3322.000,0.499834,
3321.000,0.504676,
3320.000,0.50964,
3319.000,0.514952,
3318.000,0.52064,
3317.000,0.526475,
3316.000,0.532291,
3315.000,0.538178,
3314.000,0.544206,
3313.000,0.550201,
3312.000,0.556006,
3311.000,0.56181,
3310.000,0.567943,
3309.000,0.574451,
3308.000,0.581086,
3307.000,0.587658,
3306.000,0.594138,
3305.000,0.600503,
3304.000,0.606762,
3303.000,0.613194,
3302.000,0.620349,
3301.000,0.628604,
3300.000,0.637691,
3299.000,0.64673,
3298.000,0.65481,
3297.000,0.661702,
3296.000,0.668096,
3295.000,0.675083,
3294.000,0.683325,
3293.000,0.692663,
3292.000,0.702363,
3291.000,0.711623,
3290.000,0.719974,
3289.000,0.727534,
3288.000,0.734999,
3287.000,0.74315,
3286.000,0.752152,
3285.000,0.761425,
3284.000,0.770331,
3283.000,0.778867,
3282.000,0.787576,
3281.000,0.796929,
3280.000,0.806972,
3279.000,0.817471,
3278.000,0.828165,
3277.000,0.83883,
3276.000,0.849245,
3275.000,0.859208,
3274.000,0.86867,
3273.000,0.877888,
3272.000,0.887433,
3271.000,0.897851,
3270.000,0.909213,
3269.000,0.921042,
3268.000,0.932742,
3267.000,0.94408,
3266.000,0.955234,
3265.000,0.966436,
3264.000,0.97771,
3263.000,0.988946,
3262.000,1.00018,
3261.000,1.01172,
3260.000,1.0239,
3259.000,1.03663,
3258.000,1.0495,
3257.000,1.0622,
3256.000,1.07493,
3255.000,1.08802,
3254.000,1.10158,
3253.000,1.11542,
3252.000,1.12939,
3251.000,1.14339,
3250.000,1.15712,
3249.000,1.17041,
3248.000,1.18359,
3247.000,1.19735,
3246.000,1.21201,
3245.000,1.22727,
3244.000,1.24277,
3243.000,1.25857,
3242.000,1.27481,
3241.000,1.29127,
3240.000,1.30756,
3239.000,1.32366,
3238.000,1.34001,
3237.000,1.35704,
3236.000,1.37483,
3235.000,1.39314,
3234.000,1.41158,
3233.000,1.42994,
3232.000,1.44835,
3231.000,1.46719,
3230.000,1.48657,
3229.000,1.50616,
3228.000,1.52566,
3227.000,1.54513,
3226.000,1.56486,
3225.000,1.58502,
3224.000,1.6055,
3223.000,1.6263,
3222.000,1.64768,
3221.000,1.67011,
3220.000,1.69379,
3219.000,1.71838,
3218.000,1.74306,
3217.000,1.76714,
3216.000,1.79065,
3215.000,1.81414,
3214.000,1.83801,
3213.000,1.86231,
3212.000,1.88697,
3211.000,1.91212,
3210.000,1.93786,
3209.000,1.96414,
3208.000,1.99082,
3207.000,2.0178,
3206.000,2.04485,
3205.000,2.07183,
3204.000,2.09891,
3203.000,2.12654,
3202.000,2.15475,
3201.000,2.18305,
3200.000,2.21103,
3199.000,2.23895,
3198.000,2.2673,
3197.000,2.29609,
3196.000,2.32499,
3195.000,2.35386,
3194.000,2.38279,
3193.000,2.41177,
3192.000,2.44053,
3191.000,2.46892,
3190.000,2.497,
3189.000,2.52482,
3188.000,2.5524,
3187.000,2.5797,
3186.000,2.60653,
3185.000,2.63252,
3184.000,2.65729,
3183.000,2.68078,
3182.000,2.70317,
3181.000,2.72463,
3180.000,2.74532,
3179.000,2.76547,
3178.000,2.78535,
3177.000,2.80484,
3176.000,2.82342,
3175.000,2.8405,
3174.000,2.85586,
3173.000,2.86965,
3172.000,2.88215,
3171.000,2.89331,
3170.000,2.90272,
3169.000,2.91008,
3168.000,2.91574,
3167.000,2.92038,
3166.000,2.92417,
3165.000,2.92645,
3164.000,2.92652,
3163.000,2.92445,
3162.000,2.9209,
3161.000,2.91632,
3160.000,2.91061,
3159.000,2.90341,
3158.000,2.89462,
3157.000,2.88434,
3156.000,2.87289,
3155.000,2.86052,
3154.000,2.84721,
3153.000,2.8327,
3152.000,2.81669,
3151.000,2.79915,
3150.000,2.78027,
3149.000,2.7603,
3148.000,2.73956,
3147.000,2.7183,
3146.000,2.69667,
3145.000,2.67464,
3144.000,2.65229,
3143.000,2.62981,
3142.000,2.60703,
3141.000,2.58344,
3140.000,2.55862,
3139.000,2.53277,
3138.000,2.50663,
3137.000,2.48085,
3136.000,2.45567,
3135.000,2.43074,
3134.000,2.40546,
3133.000,2.37938,
3132.000,2.35264,
3131.000,2.32582,
3130.000,2.29934,
3129.000,2.27307,
3128.000,2.24664,
3127.000,2.21972,
3126.000,2.19214,
3125.000,2.16397,
3124.000,2.13565,
3123.000,2.10781,
3122.000,2.08068,
3121.000,2.05395,
3120.000,2.02726,
3119.000,2.00057,
3118.000,1.974,
3117.000,1.94739,
3116.000,1.92045,
3115.000,1.8931,
3114.000,1.86566,
3113.000,1.83856,
3112.000,1.81204,
3111.000,1.78595,
3110.000,1.75993,
3109.000,1.73372,
3108.000,1.70745,
3107.000,1.68141,
3106.000,1.65558,
3105.000,1.62966,
3104.000,1.60357,
3103.000,1.57764,
3102.000,1.55224,
3101.000,1.52745,
3100.000,1.50322,
3099.000,1.47942,
3098.000,1.45564,
3097.000,1.43131,
3096.000,1.40615,
3095.000,1.38061,
3094.000,1.35545,
3093.000,1.33117,
3092.000,1.30771,
3091.000,1.28454,
3090.000,1.26097,
3089.000,1.23657,
3088.000,1.21172,
3087.000,1.18731,
3086.000,1.16389,
3085.000,1.14115,
3084.000,1.11861,
3083.000,1.09634,
3082.000,1.07478,
3081.000,1.05392,
3080.000,1.03327,
3079.000,1.01247,
3078.000,0.99167,
3077.000,0.971134,
3076.000,0.950774,
3075.000,0.93024,
3074.000,0.90938,
3073.000,0.88848,
3072.000,0.868026,
3071.000,0.848268,
3070.000,0.829053,
3069.000,0.810189,
3068.000,0.791846,
3067.000,0.774408,
3066.000,0.757918,
3065.000,0.741881,
3064.000,0.725763,
3063.000,0.709514,
3062.000,0.693513,
3061.000,0.678167,
3060.000,0.663643,
3059.000,0.649828,
3058.000,0.636342,
3057.000,0.62274,
3056.000,0.608889,
3055.000,0.595099,
3054.000,0.58178,
3053.000,0.569101,
3052.000,0.557064,
3051.000,0.545722,
3050.000,0.535037,
3049.000,0.52462,
3048.000,0.513917,
3047.000,0.502721,
3046.000,0.491401,
3045.000,0.480527,
3044.000,0.470416,
3043.000,0.461019,
3042.000,0.4521,
3041.000,0.443409,
3040.000,0.434777,
3039.000,0.426163,
3038.000,0.417635,
3037.000,0.409206,
3036.000,0.4007,
3035.000,0.391885,
3034.000,0.382822,
3033.000,0.374016,
3032.000,0.366056,
3031.000,0.359082,
3030.000,0.352742,
3029.000,0.346682,
3028.000,0.340883,
3027.000,0.3354,
3026.000,0.329995,
3025.000,0.324298,
3024.000,0.318298,
3023.000,0.312457,
3022.000,0.307252,
3021.000,0.30272,
3020.000,0.298443,
3019.000,0.293869,
3018.000,0.288711,
3017.000,0.283165,
3016.000,0.27775,
3015.000,0.272854,
3014.000,0.268466,
3013.000,0.264388,
3012.000,0.260464,
3011.000,0.256429,
3010.000,0.251812,
3009.000,0.246431,
3008.000,0.24093,
3007.000,0.236369,
3006.000,0.233153,
3005.000,0.230667,
3004.000,0.228054,
3003.000,0.225053,
3002.000,0.221913,
3001.000,0.218813,
3000.000,0.215677,
2999.000,0.212388,
2998.000,0.208905,
2997.000,0.205191,
2996.000,0.20124,
2995.000,0.197178,
2994.000,0.193268,
2993.000,0.189804,
2992.000,0.186985,
2991.000,0.184741,
2990.000,0.182649,
2989.000,0.180179,
2988.000,0.17715,
2987.000,0.173868,
2986.000,0.170756,
2985.000,0.168019,
2984.000,0.165671,
2983.000,0.163647,
2982.000,0.161712,
2981.000,0.159447,
2980.000,0.156589,
2979.000,0.153313,
2978.000,0.150019,
2977.000,0.14692,
2976.000,0.143991,
2975.000,0.141224,
2974.000,0.1387,
2973.000,0.136424,
2972.000,0.1343,
2971.000,0.132273,
2970.000,0.130293,
2969.000,0.128108,
2968.000,0.125307,
2967.000,0.121739,
2966.000,0.117788,
2965.000,0.114121,
2964.000,0.111132,
2963.000,0.108642,
2962.000,0.106124,
2961.000,0.103169,
2960.000,0.09977,
2959.000,0.0962729,
2958.000,0.0931563,
2957.000,0.0908308,
2956.000,0.0894509,
2955.000,0.0887289,
2954.000,0.0879649,
2953.000,0.0864703,
2952.000,0.084073,
2951.000,0.0811565,
2950.000,0.0782114,
2949.000,0.0754825,
2948.000,0.0730861,
2947.000,0.0712,
2946.000,0.0698945,
2945.000,0.068842,
2944.000,0.0674796,
2943.000,0.06556,
2942.000,0.0634417,
2941.000,0.0618025,
2940.000,0.061148,
2939.000,0.061563,
2938.000,0.0627439,
2937.000,0.0641829,
2936.000,0.065471,
2935.000,0.066612,
2934.000,0.0680857,
2933.000,0.0704734,
2932.000,0.07394,
2931.000,0.0780799,
2930.000,0.0823917,
2929.000,0.0868828,
2928.000,0.0920778,
2927.000,0.0983864,
2926.000,0.105567,
2925.000,0.112926,
2924.000,0.119928,
2923.000,0.126473,
2922.000,0.132647,
2921.000,0.138419,
2920.000,0.143697,
2919.000,0.148522,
2918.000,0.153031,
2917.000,0.157236,
2916.000,0.160953,
2915.000,0.163974,
2914.000,0.166226,
2913.000,0.167748,
2912.000,0.168557,
2911.000,0.168627,
2910.000,0.168041,
2909.000,0.167089,
2908.000,0.166117,
2907.000,0.16525,
2906.000,0.164353,
2905.000,0.163315,
2904.000,0.162278,
2903.000,0.161475,
2902.000,0.1609,
2901.000,0.160269,
2900.000,0.159292,
2899.000,0.157916,
2898.000,0.156335,
2897.000,0.154876,
2896.000,0.153805,
2895.000,0.153097,
2894.000,0.152362,
2893.000,0.151192,
2892.000,0.149614,
2891.000,0.148082,
2890.000,0.146937,
2889.000,0.146027,
2888.000,0.144942,
2887.000,0.143487,
2886.000,0.14181,
2885.000,0.140173,
2884.000,0.138781,
2883.000,0.137684,
2882.000,0.13665,
2881.000,0.135143,
2880.000,0.132674,
2879.000,0.129277,
2878.000,0.125587,
2877.000,0.122372,
2876.000,0.119994,
2875.000,0.118248,
2874.000,0.116632,
2873.000,0.114726,
2872.000,0.112429,
2871.000,0.109986,
2870.000,0.107761,
2869.000,0.105885,
2868.000,0.104157,
2867.000,0.102371,
2866.000,0.100666,
2865.000,0.0994423,
2864.000,0.0989395,
2863.000,0.099118,
2862.000,0.0999544,
2861.000,0.101645,
2860.000,0.104361,
2859.000,0.107936,
2858.000,0.111999,
2857.000,0.11636,
2856.000,0.121048,
2855.000,0.125997,
2854.000,0.130913,
2853.000,0.135526,
2852.000,0.139764,
2851.000,0.14357,
2850.000,0.146662,
2849.000,0.148658,
2848.000,0.14939,
2847.000,0.148989,
2846.000,0.147738,
2845.000,0.145981,
2844.000,0.144156,
2843.000,0.142727,
2842.000,0.141943,
2841.000,0.141672,
2840.000,0.141498,
2839.000,0.140985,
2838.000,0.139891,
2837.000,0.138259,
2836.000,0.136357,
2835.000,0.134488,
2834.000,0.132814,
2833.000,0.131409,
2832.000,0.130422,
2831.000,0.130064,
2830.000,0.130378,
2829.000,0.131052,
2828.000,0.131545,
2827.000,0.131445,
2826.000,0.130744,
2825.000,0.129835,
2824.000,0.129228,
2823.000,0.129233,
2822.000,0.129764,
2821.000,0.130378,
2820.000,0.130497,
2819.000,0.129745,
2818.000,0.128202,
2817.000,0.126384,
2816.000,0.124934,
2815.000,0.124255,
2814.000,0.124318,
2813.000,0.124713,
2812.000,0.12488,
2811.000,0.124418,
2810.000,0.123391,
2809.000,0.122333,
2808.000,0.121848,
2807.000,0.122091,
2806.000,0.122689,
2805.000,0.123155,
2804.000,0.123345,
2803.000,0.123481,
2802.000,0.123782,
2801.000,0.124148,
2800.000,0.124195,
2799.000,0.123601,
2798.000,0.122422,
2797.000,0.121062,
2796.000,0.119986,
2795.000,0.119493,
2794.000,0.11969,
2793.000,0.12046,
2792.000,0.121374,
2791.000,0.121849,
2790.000,0.121679,
2789.000,0.121311,
2788.000,0.121346,
2787.000,0.121779,
2786.000,0.122026,
2785.000,0.121729,
2784.000,0.121199,
2783.000,0.120947,
2782.000,0.121069,
2781.000,0.121298,
2780.000,0.121438,
2779.000,0.1215,
2778.000,0.121564,
2777.000,0.121748,
2776.000,0.122204,
2775.000,0.122907,
2774.000,0.1235,
2773.000,0.123606,
2772.000,0.123295,
2771.000,0.123025,
2770.000,0.123103,
2769.000,0.12338,
2768.000,0.123493,
2767.000,0.123248,
2766.000,0.122753,
2765.000,0.12231,
2764.000,0.122205,
2763.000,0.122559,
2762.000,0.123308,
2761.000,0.124284,
2760.000,0.125298,
2759.000,0.126178,
2758.000,0.126783,
2757.000,0.127067,
2756.000,0.127139,
2755.000,0.127194,
2754.000,0.12736,
2753.000,0.127632,
2752.000,0.127944,
2751.000,0.128271,
2750.000,0.128647,
2749.000,0.129099,
2748.000,0.129592,
2747.000,0.13008,
2746.000,0.13061,
2745.000,0.131326,
2744.000,0.13227,
2743.000,0.13321,
2742.000,0.133808,
2741.000,0.133962,
2740.000,0.133901,
2739.000,0.133955,
2738.000,0.13437,
2737.000,0.135301,
2736.000,0.13673,
2735.000,0.138302,
2734.000,0.139464,
2733.000,0.139914,
2732.000,0.139864,
2731.000,0.139766,
2730.000,0.139867,
2729.000,0.140102,
2728.000,0.140314,
2727.000,0.140491,
2726.000,0.140867,
2725.000,0.141824,
2724.000,0.143525,
2723.000,0.145541,
2722.000,0.147079,
2721.000,0.147784,
2720.000,0.148157,
2719.000,0.148965,
2718.000,0.150375,
2717.000,0.151921,
2716.000,0.153185,
2715.000,0.154215,
2714.000,0.1553,
2713.000,0.156589,
2712.000,0.157964,
2711.000,0.159113,
2710.000,0.159766,
2709.000,0.160037,
2708.000,0.160495,
2707.000,0.161675,
2706.000,0.16351,
2705.000,0.165471,
2704.000,0.167237,
2703.000,0.168959,
2702.000,0.17081,
2701.000,0.172595,
2700.000,0.174013,
2699.000,0.175088,
2698.000,0.176102,
2697.000,0.177205,
2696.000,0.178369,
2695.000,0.179698,
2694.000,0.181502,
2693.000,0.183938,
2692.000,0.186705,
2691.000,0.189238,
2690.000,0.191218,
2689.000,0.192827,
2688.000,0.194481,
2687.000,0.196393,
2686.000,0.19847,
2685.000,0.200536,
2684.000,0.202456,
2683.000,0.204059,
2682.000,0.20521,
2681.000,0.206116,
2680.000,0.207367,
2679.000,0.20941,
2678.000,0.212048,
2677.000,0.214682,
2676.000,0.216975,
2675.000,0.219031,
2674.000,0.220965,
2673.000,0.222635,
2672.000,0.223937,
2671.000,0.225115,
2670.000,0.226613,
2669.000,0.228728,
2668.000,0.231476,
2667.000,0.234592,
2666.000,0.237538,
2665.000,0.239728,
2664.000,0.241028,
2663.000,0.242054,
2662.000,0.24384,
2661.000,0.247137,
2660.000,0.251966,
2659.000,0.257657,
2658.000,0.263214,
2657.000,0.26785,
2656.000,0.271456,
2655.000,0.274623,
2654.000,0.278104,
2653.000,0.282198,
2652.000,0.286674,
2651.000,0.291144,
2650.000,0.295391,
2649.000,0.29939,
2648.000,0.303198,
2647.000,0.30693,
2646.000,0.310744,
2645.000,0.314801,
2644.000,0.31921,
2643.000,0.32399,
2642.000,0.329046,
2641.000,0.3342,
2640.000,0.339334,
2639.000,0.344515,
2638.000,0.349934,
2637.000,0.355713,
2636.000,0.361799,
2635.000,0.368091,
2634.000,0.374617,
2633.000,0.381474,
2632.000,0.388556,
2631.000,0.395433,
2630.000,0.401668,
2629.000,0.407315,
2628.000,0.412947,
2627.000,0.419107,
2626.000,0.425799,
2625.000,0.432619,
2624.000,0.439293,
2623.000,0.445886,
2622.000,0.452537,
2621.000,0.459231,
2620.000,0.465934,
2619.000,0.472756,
2618.000,0.479786,
2617.000,0.486869,
2616.000,0.493709,
2615.000,0.500201,
2614.000,0.50654,
2613.000,0.513045,
2612.000,0.519958,
2611.000,0.52735,
2610.000,0.535093,
2609.000,0.542922,
2608.000,0.550638,
2607.000,0.558346,
2606.000,0.56645,
2605.000,0.575338,
2604.000,0.585067,
2603.000,0.595299,
2602.000,0.605526,
2601.000,0.615438,
2600.000,0.625156,
2599.000,0.635183,
2598.000,0.646034,
2597.000,0.657775,
2596.000,0.669871,
2595.000,0.681534,
2594.000,0.692366,
2593.000,0.70272,
2592.000,0.71335,
2591.000,0.724662,
2590.000,0.736333,
2589.000,0.747756,
2588.000,0.758759,
2587.000,0.769776,
2586.000,0.781346,
2585.000,0.793595,
2584.000,0.80624,
2583.000,0.81892,
2582.000,0.831461,
2581.000,0.843963,
2580.000,0.856722,
2579.000,0.870008,
2578.000,0.883803,
2577.000,0.897762,
2576.000,0.911502,
2575.000,0.924944,
2574.000,0.938371,
2573.000,0.952205,
2572.000,0.966709,
2571.000,0.981832,
2570.000,0.997298,
2569.000,1.01287,
2568.000,1.02859,
2567.000,1.04472,
2566.000,1.06151,
2565.000,1.07901,
2564.000,1.09708,
2563.000,1.11543,
2562.000,1.13382,
2561.000,1.15221,
2560.000,1.17088,
2559.000,1.19016,
2558.000,1.21009,
2557.000,1.23036,
2556.000,1.25069,
2555.000,1.271,
2554.000,1.29139,
2553.000,1.312,
2552.000,1.33307,
2551.000,1.35477,
2550.000,1.37696,
2549.000,1.39931,
2548.000,1.42158,
2547.000,1.44374,
2546.000,1.46563,
2545.000,1.48685,
2544.000,1.5073,
2543.000,1.52737,
2542.000,1.54757,
2541.000,1.56798,
2540.000,1.58836,
2539.000,1.60852,
2538.000,1.62849,
2537.000,1.64833,
2536.000,1.66797,
2535.000,1.68725,
2534.000,1.70606,
2533.000,1.72442,
2532.000,1.74259,
2531.000,1.76088,
2530.000,1.7792,
2529.000,1.79708,
2528.000,1.81399,
2527.000,1.82974,
2526.000,1.84452,
2525.000,1.85856,
2524.000,1.87208,
2523.000,1.88506,
2522.000,1.8974,
2521.000,1.90901,
2520.000,1.92,
2519.000,1.93044,
2518.000,1.93988,
2517.000,1.94759,
2516.000,1.95327,
2515.000,1.95721,
2514.000,1.95973,
2513.000,1.96067,
2512.000,1.95975,
2511.000,1.95712,
2510.000,1.95312,
2509.000,1.94796,
2508.000,1.94155,
2507.000,1.93372,
2506.000,1.92443,
2505.000,1.91374,
2504.000,1.90186,
2503.000,1.88906,
2502.000,1.87547,
2501.000,1.86105,
2500.000,1.84581,
2499.000,1.82986,
2498.000,1.8132,
2497.000,1.79566,
2496.000,1.77716,
2495.000,1.75791,
2494.000,1.73816,
2493.000,1.71804,
2492.000,1.6976,
2491.000,1.67703,
2490.000,1.65655,
2489.000,1.63618,
2488.000,1.6158,
2487.000,1.59531,
2486.000,1.57467,
2485.000,1.55391,
2484.000,1.53301,
2483.000,1.51189,
2482.000,1.49034,
2481.000,1.46834,
2480.000,1.44624,
2479.000,1.42454,
2478.000,1.40336,
2477.000,1.38224,
2476.000,1.36062,
2475.000,1.33845,
2474.000,1.31627,
2473.000,1.29462,
2472.000,1.2736,
2471.000,1.25277,
2470.000,1.23169,
2469.000,1.21036,
2468.000,1.18918,
2467.000,1.16848,
2466.000,1.14824,
2465.000,1.12829,
2464.000,1.10854,
2463.000,1.08895,
2462.000,1.0695,
2461.000,1.05035,
2460.000,1.03186,
2459.000,1.01408,
2458.000,0.996481,
2457.000,0.978411,
2456.000,0.959955,
2455.000,0.941783,
2454.000,0.924224,
2453.000,0.906835,
2452.000,0.889097,
2451.000,0.871161,
2450.000,0.853636,
2449.000,0.836809,
2448.000,0.820379,
2447.000,0.803948,
2446.000,0.787509,
2445.000,0.771388,
2444.000,0.755791,
2443.000,0.740479,
2442.000,0.724964,
2441.000,0.708999,
2440.000,0.692859,
2439.000,0.677064,
2438.000,0.66187,
2437.000,0.647142,
2436.000,0.632641,
2435.000,0.618268,
2434.000,0.604025,
2433.000,0.589912,
2432.000,0.576014,
2431.000,0.562539,
2430.000,0.549621,
2429.000,0.537118,
2428.000,0.524704,
2427.000,0.512209,
2426.000,0.499785,
2425.000,0.487732,
2424.000,0.476222,
2423.000,0.465204,
2422.000,0.454542,
2421.000,0.44416,
2420.000,0.434077,
2419.000,0.424371,
2418.000,0.415066,
2417.000,0.406003,
2416.000,0.396867,
2415.000,0.3875,
2414.000,0.378254,
2413.000,0.36981,
2412.000,0.362494,
2411.000,0.355867,
2410.000,0.34917,
2409.000,0.342074,
2408.000,0.334789,
2407.000,0.327552,
2406.000,0.3203,
2405.000,0.312911,
2404.000,0.305519,
2403.000,0.298443,
2402.000,0.291915,
2401.000,0.285931,
2400.000,0.280272,
2399.000,0.27471,
2398.000,0.269276,
2397.000,0.264312,
2396.000,0.260018,
2395.000,0.255953,
2394.000,0.251311,
2393.000,0.245813,
2392.000,0.240085,
2391.000,0.234987,
2390.000,0.230759,
2389.000,0.226993,
2388.000,0.22324,
2387.000,0.219445,
2386.000,0.215886,
2385.000,0.212847,
2384.000,0.210329,
2383.000,0.207982,
2382.000,0.205401,
2381.000,0.202534,
2380.000,0.199649,
2379.000,0.196896,
2378.000,0.194102,
2377.000,0.191124,
2376.000,0.188145,
2375.000,0.185366,
2374.000,0.182653,
2373.000,0.179824,
2372.000,0.177052,
2371.000,0.174661,
2370.000,0.172576,
2369.000,0.170418,
2368.000,0.168184,
2367.000,0.166323,
2366.000,0.16493,
2365.000,0.163322,
2364.000,0.160779,
2363.000,0.157413,
2362.000,0.15404,
2361.000,0.15161,
2360.000,0.150486,
2359.000,0.150058,
2358.000,0.149372,
2357.000,0.147775,
2356.000,0.145449,
2355.000,0.14316,
2354.000,0.14121,
2353.000,0.13949,
2352.000,0.137804,
2351.000,0.136258,
2350.000,0.134863,
2349.000,0.133379,
2348.000,0.131822,
2347.000,0.130187,
2346.000,0.128605,
2345.000,0.127268,
2344.000,0.12614,
2343.000,0.12501,
2342.000,0.123573,
2341.000,0.122353,
2340.000,0.121809,
2339.000,0.121754,
2338.000,0.121484,
2337.000,0.120443,
2336.000,0.118819,
2335.000,0.116902,
2334.000,0.114721,
2333.000,0.112183,
2332.000,0.109799,
2331.000,0.108207,
2330.000,0.107571,
2329.000,0.107168,
2328.000,0.106581,
2327.000,0.105634,
2326.000,0.104728,
2325.000,0.104138,
2324.000,0.103906,
2323.000,0.103674,
2322.000,0.102866,
2321.000,0.101514,
2320.000,0.10016,
2319.000,0.0992854,
2318.000,0.09872,
2317.000,0.098014,
2316.000,0.0972861,
2315.000,0.0968548,
2314.000,0.0967025,
2313.000,0.0960673,
2312.000,0.0945087,
2311.000,0.0922502,
2310.000,0.090174,
2309.000,0.0889356,
2308.000,0.0888213,
2307.000,0.0894266,
2306.000,0.0899625,
2305.000,0.0896188,
2304.000,0.0882899,
2303.000,0.0865296,
2302.000,0.0850723,
2301.000,0.0841741,
2300.000,0.0837299,
2299.000,0.0835031,
2298.000,0.0833303,
2297.000,0.0829933,
2296.000,0.0824712,
2295.000,0.0819959,
2294.000,0.081827,
2293.000,0.0817452,
2292.000,0.0812612,
2291.000,0.0803028,
2290.000,0.0795218,
2289.000,0.0795123,
2288.000,0.0798864,
2287.000,0.079563,
2286.000,0.0780637,
2285.000,0.0761689,
2284.000,0.0750277,
2283.000,0.0749215,
2282.000,0.0751544,
2281.000,0.0750254,
2280.000,0.0744976,
2279.000,0.0739223,
2278.000,0.0734704,
2277.000,0.0730771,
2276.000,0.072708,
2275.000,0.0724433,
2274.000,0.0723316,
2273.000,0.0723094,
2272.000,0.0722767,
2271.000,0.0721348,
2270.000,0.0718314,
2269.000,0.0714419,
2268.000,0.0711061,
2267.000,0.0708151,
2266.000,0.0704164,
2265.000,0.0698799,
2264.000,0.0693764,
2263.000,0.0690133,
2262.000,0.068723,
2261.000,0.0684997,
2260.000,0.0684602,
2259.000,0.0685147,
2258.000,0.0682909,
2257.000,0.0676721,
2256.000,0.0671254,
2255.000,0.0671364,
2254.000,0.0674699,
2253.000,0.0674125,
2252.000,0.066694,
2251.000,0.0657472,
2250.000,0.0650417,
2249.000,0.0645777,
2248.000,0.0641699,
2247.000,0.0638429,
2246.000,0.0637051,
2245.000,0.0636591,
2244.000,0.0635411,
2243.000,0.0633987,
2242.000,0.0633901,
2241.000,0.0634719,
2240.000,0.0633505,
2239.000,0.0627681,
2238.000,0.0618238,
2237.000,0.0609281,
2236.000,0.0604122,
2235.000,0.0602741,
2234.000,0.0602922,
2233.000,0.0603115,
2232.000,0.0603829,
2231.000,0.0605788,
2230.000,0.0607535,
2229.000,0.0606937,
2228.000,0.0604455,
2227.000,0.0602543,
2226.000,0.0602197,
2225.000,0.0602183,
2224.000,0.0601368,
2223.000,0.0599859,
2222.000,0.0597796,
2221.000,0.0594959,
2220.000,0.0592114,
2219.000,0.0591287,
2218.000,0.0593633,
2217.000,0.0598168,
2216.000,0.0602948,
2215.000,0.0606114,
2214.000,0.0606055,
2213.000,0.0602235,
2212.000,0.059613,
2211.000,0.0590357,
2210.000,0.0586417,
2209.000,0.0584263,
2208.000,0.0584074,
2207.000,0.058646,
2206.000,0.059041,
2205.000,0.0592976,
2204.000,0.059226,
2203.000,0.0589466,
2202.000,0.0586959,
2201.000,0.0585155,
2200.000,0.0582251,
2199.000,0.0576337,
2198.000,0.0567135,
2197.000,0.0556402,
2196.000,0.0547428,
2195.000,0.0543501,
2194.000,0.0546175,
2193.000,0.0554918,
2192.000,0.0567898,
2191.000,0.0582163,
2190.000,0.0593594,
2189.000,0.0599006,
2188.000,0.0599214,
2187.000,0.0598278,
2186.000,0.0598768,
2185.000,0.0599182,
2184.000,0.0597193,
2183.000,0.0593714,
2182.000,0.0591483,
2181.000,0.0590193,
2180.000,0.0586411,
2179.000,0.0579321,
2178.000,0.0573773,
2177.000,0.0575352,
2176.000,0.0583158,
2175.000,0.0589599,
2174.000,0.0588154,
2173.000,0.0579856,
2172.000,0.0571358,
2171.000,0.0567957,
2170.000,0.0569874,
2169.000,0.0574449,
2168.000,0.0579293,
2167.000,0.0582739,
2166.000,0.0583695,
2165.000,0.0583016,
2164.000,0.0583429,
2163.000,0.0586311,
2162.000,0.0589685,
2161.000,0.0591169,
2160.000,0.0591553,
2159.000,0.0593106,
2158.000,0.0595269,
2157.000,0.0595072,
2156.000,0.0591975,
2155.000,0.0588955,
2154.000,0.0588269,
2153.000,0.0589562,
2152.000,0.059252,
2151.000,0.0598056,
2150.000,0.0605512,
2149.000,0.0610995,
2148.000,0.061117,
2147.000,0.0608201,
2146.000,0.0607887,
2145.000,0.0612554,
2144.000,0.0618166,
2143.000,0.061954,
2142.000,0.0616856,
2141.000,0.0614998,
2140.000,0.0617255,
2139.000,0.0621358,
2138.000,0.0622218,
2137.000,0.0617596,
2136.000,0.061021,
2135.000,0.06047,
2134.000,0.0603547,
2133.000,0.0606112,
2132.000,0.0610443,
2131.000,0.0614783,
2130.000,0.061773,
2129.000,0.0618267,
2128.000,0.0616818,
2127.000,0.0615983,
2126.000,0.0618875,
2125.000,0.0626869,
2124.000,0.0638656,
2123.000,0.0650888,
2122.000,0.0660416,
2121.000,0.0665766,
2120.000,0.0667051,
2119.000,0.0665438,
2118.000,0.0662414,
2117.000,0.0659258,
2116.000,0.0656884,
2115.000,0.0655728,
2114.000,0.0656352,
2113.000,0.0660091,
2112.000,0.066798,
2111.000,0.0678692,
2110.000,0.0688682,
2109.000,0.0695247,
2108.000,0.0698744,
2107.000,0.0701204,
2106.000,0.0703879,
2105.000,0.0707104,
2104.000,0.0711407,
2103.000,0.0717071,
2102.000,0.0722855,
2101.000,0.0726446,
2100.000,0.0726175,
2099.000,0.0721833,
2098.000,0.0714655,
2097.000,0.0707835,
2096.000,0.070622,
2095.000,0.0713324,
2094.000,0.0728056,
2093.000,0.0745558,
2092.000,0.07613,
2091.000,0.0773556,
2090.000,0.0782443,
2089.000,0.0788554,
2088.000,0.0792584,
2087.000,0.0794993,
2086.000,0.0796308,
2085.000,0.0798323,
2084.000,0.080357,
2083.000,0.0812015,
2082.000,0.0819234,
2081.000,0.0820865,
2080.000,0.0819353,
2079.000,0.0822912,
2078.000,0.0836674,
2077.000,0.0857377,
2076.000,0.0877535,
2075.000,0.0891843,
2074.000,0.0898217,
2073.000,0.0896748,
2072.000,0.0891381,
2071.000,0.089037,
2070.000,0.0900421,
2069.000,0.0919535,
2068.000,0.0938356,
2067.000,0.0949709,
2066.000,0.0955491,
2065.000,0.0963304,
2064.000,0.0977768,
2063.000,0.0996013,
2062.000,0.101106,
2061.000,0.101873,
2060.000,0.102108,
2059.000,0.102341,
2058.000,0.102873,
2057.000,0.103569,
2056.000,0.104177,
2055.000,0.104694,
2054.000,0.105338,
2053.000,0.106325,
2052.000,0.107782,
2051.000,0.109721,
2050.000,0.111926,
2049.000,0.113954,
2048.000,0.115496,
2047.000,0.116691,
2046.000,0.117924,
2045.000,0.119337,
2044.000,0.120741,
2043.000,0.122012,
2042.000,0.123343,
2041.000,0.124968,
2040.000,0.126844,
2039.000,0.128748,
2038.000,0.130625,
2037.000,0.132624,
2036.000,0.134853,
2035.000,0.137269,
2034.000,0.139788,
2033.000,0.142376,
2032.000,0.144973,
2031.000,0.147434,
2030.000,0.149598,
2029.000,0.151382,
2028.000,0.152806,
2027.000,0.154048,
2026.000,0.155529,
2025.000,0.157785,
2024.000,0.160986,
2023.000,0.164639,
2022.000,0.167987,
2021.000,0.170761,
2020.000,0.173396,
2019.000,0.176412,
2018.000,0.179735,
2017.000,0.182846,
2016.000,0.185531,
2015.000,0.188231,
2014.000,0.191567,
2013.000,0.195684,
2012.000,0.200127,
2011.000,0.204279,
2010.000,0.20787,
2009.000,0.211152,
2008.000,0.214627,
2007.000,0.218621,
2006.000,0.223106,
2005.000,0.227856,
2004.000,0.23255,
2003.000,0.236773,
2002.000,0.240289,
2001.000,0.243547,
2000.000,0.24763,
1999.000,0.253198,
1998.000,0.259625,
1997.000,0.265572,
1996.000,0.270419,
1995.000,0.274782,
1994.000,0.279558,
1993.000,0.284968,
1992.000,0.29073,
1991.000,0.296665,
1990.000,0.302775,
1989.000,0.308978,
1988.000,0.315145,
1987.000,0.321359,
1986.000,0.327817,
1985.000,0.334502,
1984.000,0.341183,
1983.000,0.347703,
1982.000,0.3541,
1981.000,0.360534,
1980.000,0.367211,
1979.000,0.374215,
1978.000,0.381305,
1977.000,0.388034,
1976.000,0.394306,
1975.000,0.400639,
1974.000,0.40761,
1973.000,0.415185,
1972.000,0.422925,
1971.000,0.43072,
1970.000,0.43891,
1969.000,0.447624,
1968.000,0.456349,
1967.000,0.464411,
1966.000,0.471843,
1965.000,0.479652,
1964.000,0.489095,
1963.000,0.500556,
1962.000,0.513147,
1961.000,0.525455,
1960.000,0.536725,
1959.000,0.547246,
1958.000,0.557719,
1957.000,0.568523,
1956.000,0.579619,
1955.000,0.590808,
1954.000,0.601938,
1953.000,0.613052,
1952.000,0.624418,
1951.000,0.636235,
1950.000,0.64832,
1949.000,0.660371,
1948.000,0.672447,
1947.000,0.684834,
1946.000,0.697568,
1945.000,0.710417,
1944.000,0.723206,
1943.000,0.735805,
1942.000,0.748092,
1941.000,0.76057,
1940.000,0.774718,
1939.000,0.791722,
1938.000,0.810834,
1937.000,0.829938,
1936.000,0.8477,
1935.000,0.864429,
1934.000,0.880944,
1933.000,0.897512,
1932.000,0.914222,
1931.000,0.931393,
1930.000,0.94897,
1929.000,0.966267,
1928.000,0.982698,
1927.000,0.998285,
1926.000,1.01332,
1925.000,1.0278,
1924.000,1.0413,
1923.000,1.0531,
1922.000,1.06277,
1921.000,1.07139,
1920.000,1.08121,
1919.000,1.09298,
1918.000,1.10434,
1917.000,1.1121,
1916.000,1.1162,
1915.000,1.11971,
1914.000,1.12449,
1913.000,1.12919,
1912.000,1.13189,
1911.000,1.13224,
1910.000,1.13081,
1909.000,1.12799,
1908.000,1.12418,
1907.000,1.12024,
1906.000,1.11659,
1905.000,1.11256,
1904.000,1.10721,
1903.000,1.10026,
1902.000,1.09173,
1901.000,1.08169,
1900.000,1.07051,
1899.000,1.05893,
1898.000,1.04729,
1897.000,1.03508,
1896.000,1.02161,
1895.000,1.00667,
1894.000,0.990616,
1893.000,0.974199,
1892.000,0.958261,
1891.000,0.94271,
1890.000,0.926193,
1889.000,0.907524,
1888.000,0.887525,
1887.000,0.868547,
1886.000,0.851701,
1885.000,0.835723,
1884.000,0.818859,
1883.000,0.800647,
1882.000,0.781685,
1881.000,0.762667,
1880.000,0.744049,
1879.000,0.72614,
1878.000,0.708996,
1877.000,0.692318,
1876.000,0.675762,
1875.000,0.659204,
1874.000,0.642665,
1873.000,0.626416,
1872.000,0.611018,
1871.000,0.596796,
1870.000,0.583224,
1869.000,0.569247,
1868.000,0.554518,
1867.000,0.540015,
1866.000,0.526928,
1865.000,0.515243,
1864.000,0.504062,
1863.000,0.492756,
1862.000,0.481153,
1861.000,0.469153,
1860.000,0.456698,
1859.000,0.443995,
1858.000,0.431502,
1857.000,0.419582,
1856.000,0.408087,
1855.000,0.39635,
1854.000,0.38381,
1853.000,0.370651,
1852.000,0.357712,
1851.000,0.34567,
1850.000,0.334486,
1849.000,0.323606,
1848.000,0.312537,
1847.000,0.301189,
1846.000,0.289908,
1845.000,0.279304,
1844.000,0.269784,
1843.000,0.261149,
1842.000,0.252972,
1841.000,0.245215,
1840.000,0.237953,
1839.000,0.230961,
1838.000,0.223836,
1837.000,0.216381,
1836.000,0.208911,
1835.000,0.201848,
1834.000,0.195237,
1833.000,0.18896,
1832.000,0.183067,
1831.000,0.177572,
1830.000,0.172243,
1829.000,0.166941,
1828.000,0.161937,
1827.000,0.157438,
1826.000,0.153085,
1825.000,0.148505,
1824.000,0.143897,
1823.000,0.139614,
1822.000,0.135628,
1821.000,0.1318,
1820.000,0.128366,
1819.000,0.125621,
1818.000,0.123269,
1817.000,0.120668,
1816.000,0.117617,
1815.000,0.114459,
1814.000,0.111569,
1813.000,0.109112,
1812.000,0.107075,
1811.000,0.105174,
1810.000,0.102919,
1809.000,0.100179,
1808.000,0.0974615,
1807.000,0.0952785,
1806.000,0.0935342,
1805.000,0.0918756,
1804.000,0.0903313,
1803.000,0.0891714,
1802.000,0.0882966,
1801.000,0.0872547,
1800.000,0.0858787,
1799.000,0.0844731,
1798.000,0.0832378,
1797.000,0.0819369,
1796.000,0.0802935,
1795.000,0.0783624,
1794.000,0.0764014,
1793.000,0.0745742,
1792.000,0.0728691,
1791.000,0.0712265,
1790.000,0.069717,
1789.000,0.0685407,
1788.000,0.0677179,
1787.000,0.0668415,
1786.000,0.0653208,
1785.000,0.0630599,
1784.000,0.0608193,
1783.000,0.05952,
1782.000,0.0592457,
1781.000,0.0592026,
1780.000,0.0585544,
1779.000,0.0570953,
1778.000,0.0551193,
1777.000,0.0529947,
1776.000,0.0510941,
1775.000,0.0498302,
1774.000,0.0493623,
1773.000,0.0493272,
1772.000,0.0490658,
1771.000,0.0482148,
1770.000,0.0469706,
1769.000,0.0456582,
1768.000,0.0444162,
1767.000,0.0433997,
1766.000,0.0428605,
1765.000,0.0428561,
1764.000,0.0430491,
1763.000,0.0429861,
1762.000,0.0425923,
1761.000,0.0422331,
1760.000,0.0421057,
1759.000,0.0417742,
1758.000,0.0406133,
1757.000,0.0386364,
1756.000,0.0366556,
1755.000,0.0354713,
1754.000,0.0351103,
1753.000,0.0350349,
1752.000,0.0348719,
1751.000,0.0346653,
1750.000,0.0344394,
1749.000,0.0340189,
1748.000,0.033411,
1747.000,0.0328928,
1746.000,0.032652,
1745.000,0.0324803,
1744.000,0.0318951,
1743.000,0.0307113,
1742.000,0.0294422,
1741.000,0.0288971,
1740.000,0.0293112,
1739.000,0.0299836,
1738.000,0.0299805,
1737.000,0.0291301,
1736.000,0.0279445,
1735.000,0.0268754,
1734.000,0.0260003,
1733.000,0.025195,
1732.000,0.0244783,
1731.000,0.0238816,
1730.000,0.0232147,
1729.000,0.0223507,
1728.000,0.0212763,
1727.000,0.0198972,
1726.000,0.01814,
1725.000,0.0160996,
1724.000,0.013918,
1723.000,0.0115791,
1722.000,0.00910438,
1721.000,0.00682258,
1720.000,0.005015,
1719.000,0.00357705,
1718.000,0.00268326,
1717.000,0.00253321,
1716.000,0.00253478,
1715.000,0.00233715,
1714.000,0.00211338,
1713.000,0.00191378,
1712.000,0.00172143,
1711.000,0.00156527,
1710.000,0.0015271,
1709.000,0.00166042,
1708.000,0.00185104,
1707.000,0.00180449,
1706.000,0.00146106,
1705.000,0.00146905,
1704.000,0.00257558,
1703.000,0.00492361,
1702.000,0.00870468,
1701.000,0.0152491,
1700.000,0.0260379,
1699.000,0.0400302,
1698.000,0.055812,
1697.000,0.0752513,
1696.000,0.100919,
1695.000,0.130793,
1694.000,0.158102,
1693.000,0.178206,
1692.000,0.19116,
1691.000,0.197815,
1690.000,0.198193,
1689.000,0.192383,
1688.000,0.181987,
1687.000,0.169816,
1686.000,0.157635,
1685.000,0.145351,
1684.000,0.132476,
1683.000,0.119792,
1682.000,0.108956,
1681.000,0.100558,
1680.000,0.0939244,
1679.000,0.0885887,
1678.000,0.0845622,
1677.000,0.0817059,
1676.000,0.079673,
1675.000,0.0779033,
1674.000,0.075724,
1673.000,0.0730221,
1672.000,0.0703571,
1671.000,0.0683376,
1670.000,0.0671336,
1669.000,0.0662536,
1668.000,0.0651127,
1667.000,0.06377,
1666.000,0.0625682,
1665.000,0.0614898,
1664.000,0.0602205,
1663.000,0.0585138,
1662.000,0.0564344,
1661.000,0.0543075,
1660.000,0.0523537,
1659.000,0.0505322,
1658.000,0.0488093,
1657.000,0.0473077,
1656.000,0.0461596,
1655.000,0.0453912,
1654.000,0.0448693,
1653.000,0.0442485,
1652.000,0.0432931,
1651.000,0.0423369,
1650.000,0.041592,
1649.000,0.0408044,
1648.000,0.040085,
1647.000,0.0396443,
1646.000,0.0393637,
1645.000,0.0392532,
1644.000,0.0394197,
1643.000,0.0395851,
1642.000,0.0392883,
1641.000,0.0384808,
1640.000,0.0375163,
1639.000,0.0367117,
1638.000,0.0361091,
1637.000,0.0355904,
1636.000,0.0350452,
1635.000,0.034404,
1634.000,0.0337418,
1633.000,0.0333246,
1632.000,0.0333459,
1631.000,0.0337636,
1630.000,0.0344142,
1629.000,0.0350921,
1628.000,0.0355658,
1627.000,0.0355849,
1626.000,0.0350444,
1625.000,0.034205,
1624.000,0.0335442,
1623.000,0.0332559,
1622.000,0.0330155,
1621.000,0.0324981,
1620.000,0.0318209,
1619.000,0.031189,
1618.000,0.0304699,
1617.000,0.0293645,
1616.000,0.0280213,
1615.000,0.0271478,
1614.000,0.0271382,
1613.000,0.0276643,
1612.000,0.0282688,
1611.000,0.0287627,
1610.000,0.0291913,
1609.000,0.0296598,
1608.000,0.0300955,
1607.000,0.030187,
1606.000,0.0296298,
1605.000,0.028475,
1604.000,0.0271854,
1603.000,0.0263498,
1602.000,0.0263563,
1601.000,0.0271284,
1600.000,0.0282077,
1599.000,0.0291445,
1598.000,0.0296151,
1597.000,0.0294188,
1596.000,0.028598,
1595.000,0.0274498,
1594.000,0.0264587,
1593.000,0.0260965,
1592.000,0.0264416,
1591.000,0.0270316,
1590.000,0.0272706,
1589.000,0.0270256,
1588.000,0.0266432,
1587.000,0.0263938,
1586.000,0.0261997,
1585.000,0.0259633,
1584.000,0.0258215,
1583.000,0.0259046,
1582.000,0.0260975,
1581.000,0.0262737,
1580.000,0.0265564,
1579.000,0.0270746,
1578.000,0.0276192,
1577.000,0.0277444,
1576.000,0.0272327,
1575.000,0.0263952,
1574.000,0.0256865,
1573.000,0.0252039,
1572.000,0.0248761,
1571.000,0.0247717,
1570.000,0.0249963,
1569.000,0.0254844,
1568.000,0.0260031,
1567.000,0.0263282,
1566.000,0.026312,
1565.000,0.0259195,
1564.000,0.0253316,
1563.000,0.0248157,
1562.000,0.0245094,
1561.000,0.0244609,
1560.000,0.0246927,
1559.000,0.0249639,
1558.000,0.0248173,
1557.000,0.0243815,
1556.000,0.0241939,
1555.000,0.0242538,
1554.000,0.0241849,
1553.000,0.0237888,
1552.000,0.0233498,
1551.000,0.0234473,
1550.000,0.0242606,
1549.000,0.0252679,
1548.000,0.0257687,
1547.000,0.0255898,
1546.000,0.0251169,
1545.000,0.0247779,
1544.000,0.0245987,
1543.000,0.0243355,
1542.000,0.0239433,
1541.000,0.0236887,
1540.000,0.0238443,
1539.000,0.024137,
1538.000,0.0240173,
1537.000,0.0235947,
1536.000,0.0234131,
1535.000,0.0237117,
1534.000,0.0241817,
1533.000,0.0241839,
1532.000,0.0235585,
1531.000,0.0228693,
1530.000,0.0226315,
1529.000,0.0228775,
1528.000,0.0233526,
1527.000,0.0238219,
1526.000,0.024314,
1525.000,0.0250047,
1524.000,0.0257724,
1523.000,0.0260851,
1522.000,0.0255391,
1521.000,0.0245398,
1520.000,0.0239072,
1519.000,0.0236824,
1518.000,0.0232168,
1517.000,0.0224209,
1516.000,0.0221853,
1515.000,0.0231742,
1514.000,0.024832,
1513.000,0.026056,
1512.000,0.0263336,
1511.000,0.025945,
1510.000,0.0252807,
1509.000,0.0245572,
1508.000,0.0240119,
1507.000,0.0238409,
1506.000,0.0238799,
1505.000,0.0238054,
1504.000,0.0236077,
1503.000,0.0233371,
1502.000,0.0229962,
1501.000,0.0226671,
1500.000,0.0225182,
1499.000,0.0228967,
1498.000,0.0240342,
1497.000,0.025642,
1496.000,0.0270155,
1495.000,0.0275118,
1494.000,0.0269955,
1493.000,0.0259351,
1492.000,0.0251433,
1491.000,0.0252851,
1490.000,0.0263402,
1489.000,0.0276617,
1488.000,0.0286861,
1487.000,0.0292106,
1486.000,0.0290306,
1485.000,0.0279743,
1484.000,0.0263845,
1483.000,0.0250332,
1482.000,0.0244791,
1481.000,0.0247642,
1480.000,0.0255773,
1479.000,0.0264857,
1478.000,0.0270635,
1477.000,0.0270481,
1476.000,0.0266494,
1475.000,0.0265743,
1474.000,0.0274027,
1473.000,0.0288677,
1472.000,0.0299377,
1471.000,0.0298868,
1470.000,0.0290045,
1469.000,0.0280168,
1468.000,0.0274099,
1467.000,0.0273907,
1466.000,0.0280224,
1465.000,0.0291934,
1464.000,0.0304607,
1463.000,0.0312693,
1462.000,0.0314437,
1461.000,0.0312512,
1460.000,0.0310407,
1459.000,0.0308857,
1458.000,0.030566,
1457.000,0.0299624,
1456.000,0.029387,
1455.000,0.0292181,
1454.000,0.0292417,
1453.000,0.0289122,
1452.000,0.0281413,
1451.000,0.0272492,
1450.000,0.0263712,
1449.000,0.0253431,
1448.000,0.0241204,
1447.000,0.0230007,
1446.000,0.0223598,
1445.000,0.0223585,
1444.000,0.022915,
1443.000,0.0238187,
1442.000,0.0248424,
1441.000,0.0259003,
1440.000,0.0271123,
1439.000,0.0285506,
1438.000,0.0299204,
1437.000,0.0306352,
1436.000,0.0304336,
1435.000,0.0298945,
1434.000,0.0297847,
1433.000,0.0301257,
1432.000,0.030335,
1431.000,0.0298765,
1430.000,0.0287776,
1429.000,0.0277357,
1428.000,0.0274857,
1427.000,0.0279501,
1426.000,0.0282189,
1425.000,0.0275054,
1424.000,0.0259934,
1423.000,0.0245667,
1422.000,0.0238517,
1421.000,0.0238053,
1420.000,0.0240932,
1419.000,0.024516,
1418.000,0.0250067,
1417.000,0.0254762,
1416.000,0.0258622,
1415.000,0.0262565,
1414.000,0.0268808,
1413.000,0.0278731,
1412.000,0.0290999,
1411.000,0.0302005,
1410.000,0.0308414,
1409.000,0.030977,
1408.000,0.030843,
1407.000,0.0306968,
1406.000,0.0306777,
1405.000,0.0309547,
1404.000,0.0317871,
1403.000,0.0332151,
1402.000,0.0348209,
1401.000,0.0360291,
1400.000,0.0366112,
1399.000,0.0367718,
1398.000,0.0368014,
1397.000,0.0368861,
1396.000,0.0372578,
1395.000,0.0382157,
1394.000,0.0398272,
1393.000,0.0417136,
1392.000,0.0433106,
1391.000,0.0442734,
1390.000,0.0446366,
1389.000,0.0447434,
1388.000,0.0450117,
1387.000,0.0456585,
1386.000,0.0466294,
1385.000,0.0478108,
1384.000,0.0490989,
1383.000,0.050248,
1382.000,0.0509201,
1381.000,0.0510289,
1380.000,0.0509291,
1379.000,0.051122,
1378.000,0.0518022,
1377.000,0.0527782,
1376.000,0.0538023,
1375.000,0.0548502,
1374.000,0.0561142,
1373.000,0.0578474,
1372.000,0.0601836,
1371.000,0.0629305,
1370.000,0.06557,
1369.000,0.0676365,
1368.000,0.0691359,
1367.000,0.0705027,
1366.000,0.0721086,
1365.000,0.0739077,
1364.000,0.0755706,
1363.000,0.0769104,
1362.000,0.0781934,
1361.000,0.0800326,
1360.000,0.08285,
1359.000,0.0864266,
1358.000,0.0901323,
1357.000,0.093573,
1356.000,0.0968336,
1355.000,0.100056,
1354.000,0.102945,
1353.000,0.10471,
1352.000,0.104355,
1351.000,0.101067,
1350.000,0.0947444,
1349.000,0.0864426,
1348.000,0.0780886,
1347.000,0.0715002,
1346.000,0.067584,
1345.000,0.0662575,
1344.000,0.0667802,
1343.000,0.0679715,
1342.000,0.0682655,
1341.000,0.0662194,
1340.000,0.0616304,
1339.000,0.056085,
1338.000,0.051951,
1337.000,0.0507345,
1336.000,0.0524138,
1335.000,0.0560264,
1334.000,0.0606061,
1333.000,0.0657319,
1332.000,0.0714505,
1331.000,0.0777948,
1330.000,0.08447,
1329.000,0.0909969,
1328.000,0.0970776,
1327.000,0.102728,
1326.000,0.108073,
1325.000,0.113086,
1324.000,0.117532,
1323.000,0.121046,
1322.000,0.123174,
1321.000,0.123392,
1320.000,0.121089,
1319.000,0.115801,
1318.000,0.107667,
1317.000,0.0975525,
1316.000,0.0865545,
1315.000,0.0753546,
1314.000,0.0643879,
1313.000,0.0544845,
1312.000,0.046818,
1311.000,0.0421103,
1310.000,0.0402728,
1309.000,0.0408821,
1308.000,0.0435601,
1307.000,0.0476874,
1306.000,0.052182,
1305.000,0.0562694,
1304.000,0.0602994,
1303.000,0.0652868,
1302.000,0.0717443,
1301.000,0.0793341,
1300.000,0.0875612,
1299.000,0.0961396,
1298.000,0.104636,
1297.000,0.11249,
1296.000,0.119707,
1295.000,0.127039,
1294.000,0.135156,
1293.000,0.143926,
1292.000,0.152753,
1291.000,0.161203,
1290.000,0.169007,
1289.000,0.175899,
1288.000,0.181993,
1287.000,0.188081,
1286.000,0.194963,
1285.000,0.202461,
1284.000,0.2095,
1283.000,0.215209,
1282.000,0.219529,
1281.000,0.222651,
1280.000,0.22434,
1279.000,0.224202,
1278.000,0.222544,
1277.000,0.220577,
1276.000,0.219698,
1275.000,0.220601,
1274.000,0.222892,
1273.000,0.225457,
1272.000,0.22728,
1271.000,0.228035,
1270.000,0.22797,
1269.000,0.227284,
1268.000,0.225731,
1267.000,0.223104,
1266.000,0.220138,
1265.000,0.218717,
1264.000,0.221013,
1263.000,0.228146,
1262.000,0.239473,
1261.000,0.252963,
1260.000,0.26625,
1259.000,0.277673,
1258.000,0.286637,
1257.000,0.293325,
1256.000,0.298155,
1255.000,0.301448,
1254.000,0.303311,
1253.000,0.303733,
1252.000,0.302702,
1251.000,0.300236,
1250.000,0.296331,
1249.000,0.290757,
1248.000,0.283182,
1247.000,0.273644,
1246.000,0.262792,
1245.000,0.251549,
1244.000,0.24039,
1243.000,0.2291,
1242.000,0.217203,
1241.000,0.204517,
1240.000,0.191345,
1239.000,0.178215,
1238.000,0.165593,
1237.000,0.153832,
1236.000,0.143205,
1235.000,0.13368,
1234.000,0.12466,
1233.000,0.115214,
1232.000,0.104801,
1231.000,0.0936805,
1230.000,0.0824822,
1229.000,0.0715983,
1228.000,0.0612478,
1227.000,0.0519583,
1226.000,0.0445643,
1225.000,0.0394148,
1224.000,0.0360591,
1223.000,0.0341075,
1222.000,0.033881,
1221.000,0.0361861,
1220.000,0.0416679,
1219.000,0.050326,
1218.000,0.0615821,
1217.000,0.0747547,
1216.000,0.0893266,
1215.000,0.104712,
1214.000,0.120257,
1213.000,0.135667,
1212.000,0.151086,
1211.000,0.166434,
1210.000,0.180781,
1209.000,0.192707,
1208.000,0.201234,
1207.000,0.206367,
1206.000,0.208636,
1205.000,0.208528,
1204.000,0.20645,
1203.000,0.202849,
1202.000,0.198237,
1201.000,0.192957,
1200.000,0.187203,
1199.000,0.181282,
1198.000,0.1756,
1197.000,0.170402,
1196.000,0.165522,
1195.000,0.160306,
1194.000,0.153914,
1193.000,0.146007,
1192.000,0.137332,
1191.000,0.129422,
1190.000,0.123329,
1189.000,0.118691,
1188.000,0.114375,
1187.000,0.10985,
1186.000,0.105509,
1185.000,0.10171,
1184.000,0.098098,
1183.000,0.0941021,
1182.000,0.089636,
1181.000,0.0850975,
1180.000,0.0810575,
1179.000,0.078015,
1178.000,0.0760875,
1177.000,0.0747694,
1176.000,0.0732615,
1175.000,0.0712243,
1174.000,0.0689997,
1173.000,0.0668889,
1172.000,0.0644758,
1171.000,0.0611071,
1170.000,0.056958,
1169.000,0.0531805,
1168.000,0.0508447,
1167.000,0.0499186,
1166.000,0.0494226,
1165.000,0.0484791,
1164.000,0.0469931,
1163.000,0.0453922,
1162.000,0.0439324,
1161.000,0.0423908,
1160.000,0.0406247,
1159.000,0.039143,
1158.000,0.0386297,
1157.000,0.0389931,
1156.000,0.0392907,
1155.000,0.0386561,
1154.000,0.0371073,
1153.000,0.0353445,
1152.000,0.0339087,
1151.000,0.0326427,
1150.000,0.030949,
1149.000,0.0286652,
1148.000,0.0264926,
1147.000,0.0252386,
1146.000,0.0247905,
1145.000,0.0243143,
1144.000,0.0233061,
1143.000,0.0219871,
1142.000,0.0207994,
1141.000,0.0199148,
1140.000,0.0192889,
1139.000,0.0187769,
1138.000,0.0181249,
1137.000,0.0173068,
1136.000,0.0166594,
1135.000,0.0163828,
1134.000,0.0164941,
1133.000,0.0168558,
1132.000,0.0168427,
1131.000,0.0160072,
1130.000,0.014457,
1129.000,0.0122952,
1128.000,0.0096981,
1127.000,0.00747281,
1126.000,0.00662599,
1125.000,0.00719619,
1124.000,0.00859864,
1123.000,0.0102006,
1122.000,0.0110391,
1121.000,0.0106365,
1120.000,0.00993747,
1119.000,0.0105783,
1118.000,0.0129317,
1117.000,0.0154168,
1116.000,0.0162106,
1115.000,0.0153579,
1114.000,0.0145732,
1113.000,0.0151547,
1112.000,0.0168934,
1111.000,0.0187896,
1110.000,0.019871,
1109.000,0.0194032,
1108.000,0.0172989,
1107.000,0.01459,
1106.000,0.0127898,
1105.000,0.0124927,
1104.000,0.0127894,
1103.000,0.0125577,
1102.000,0.0120939,
1101.000,0.0128187,
1100.000,0.0154521,
1099.000,0.0185765,
1098.000,0.0200358,
1097.000,0.0189229,
1096.000,0.0159116,
1095.000,0.0124979,
1094.000,0.0103796,
1093.000,0.0105008,
1092.000,0.0119182,
1091.000,0.0134434,
1090.000,0.0146271,
1089.000,0.0149039,
1088.000,0.0138238,
1087.000,0.0115046,
1086.000,0.00846009,
1085.000,0.00532788,
1084.000,0.00284976,
1083.000,0.00191093,
1082.000,0.00181763,
1081.000,0.00327674,
1080.000,0.00576247,
1079.000,0.00757848,
1078.000,0.00841017,
1077.000,0.00873574,
1076.000,0.0090879,
1075.000,0.00960529,
1074.000,0.00994358,
1073.000,0.00955638,
1072.000,0.008104,
1071.000,0.00625565,
1070.000,0.00528905,
1069.000,0.00546075,
1068.000,0.00669662,
1067.000,0.00789985,
1066.000,0.00778746,
1065.000,0.00642176,
1064.000,0.00489936,
1063.000,0.00453296,
1062.000,0.00517623,
1061.000,0.00568682,
1060.000,0.00580701,
1059.000,0.00586346,
1058.000,0.00636918,
1057.000,0.00642932,
1056.000,0.00460047,
1055.000,0.00254706,
1054.000,0.00355415,
1053.000,0.00364984,
1052.000,0.00284786,
1051.000,0.00279204,
1050.000,0.00442403,
1049.000,0.00652718,
1048.000,0.00754526,
1047.000,0.00756723,
1046.000,0.00696039,
1045.000,0.00553389,
1044.000,0.00359446,
1043.000,0.00236124,
1042.000,0.00193022,
1041.000,0.00203742,
1040.000,0.00317657,
1039.000,0.00395961,
1038.000,0.00378057,
1037.000,0.00310062,
1036.000,0.00246605,
1035.000,0.00347757,
1034.000,0.00652242,
1033.000,0.00900404,
1032.000,0.00909155,
1031.000,0.0067444,
1030.000,0.00359794,
1029.000,0.00168144,
1028.000,0.00226165,
1027.000,0.003118,
1026.000,0.00379462,
1025.000,0.00448748,
1024.000,0.00455387,
1023.000,0.00403371,
1022.000,0.00461118,
1021.000,0.00659877,
1020.000,0.00751602,
1019.000,0.00586951,
1018.000,0.00241089,
1017.000,0.00125403,
1016.000,0.00231033,
1015.000,0.00219675,
1014.000,0.00142185,
1013.000,0.000946911,
1012.000,0.00282638,
1011.000,0.00305806,
1010.000,0.00163489,
1009.000,0.00345891,
1008.000,0.00583104,
1007.000,0.00666984,
1006.000,0.00564954,
1005.000,0.00340918,
1004.000,0.00130459,
1003.000,0.000617423,
1002.000,0.00157969,
1001.000,0.00202129,
1000.000,0.00157224,
999.000,0.00146764,
998.000,0.00254705,
997.000,0.0036905,
996.000,0.0040419,
995.000,0.00317101,
994.000,0.00276646,
993.000,0.00478428,
992.000,0.00621472,
991.000,0.00566965,
990.000,0.00385601,
989.000,0.00288503,
988.000,0.00266276,
987.000,0.00171299,
986.000,0.00138492,
985.000,0.00142389,
984.000,0.00188742,
983.000,0.00383831,
982.000,0.00533471,
981.000,0.00514393,
980.000,0.00328098,
979.000,0.0020302,
978.000,0.00348401,
977.000,0.00489838,
976.000,0.0060476,
975.000,0.00636682,
974.000,0.00516681,
973.000,0.00288834,
972.000,0.00183243,
971.000,0.00341196,
970.000,0.00459501,
969.000,0.00443366,
968.000,0.00307255,
967.000,0.00148704,
966.000,0.000970446,
965.000,0.00131308,
964.000,0.00137626,
963.000,0.00112238,
962.000,0.000784159,
961.000,0.001136,
960.000,0.00197664,
959.000,0.0026524,
958.000,0.00326521,
957.000,0.00327776,
956.000,0.00221461,
955.000,0.00324682,
954.000,0.00602638,
953.000,0.00704283,
952.000,0.00573531,
951.000,0.00332128,
950.000,0.00159247,
949.000,0.000742001,
948.000,0.00167669,
947.000,0.00365467,
946.000,0.00377684,
945.000,0.00154913,
944.000,0.00211047,
943.000,0.00474839,
942.000,0.00589255,
941.000,0.0058029,
940.000,0.00512599,
939.000,0.00412123,
938.000,0.00276545,
937.000,0.00113642,
936.000,0.000903714,
935.000,0.00176433,
934.000,0.0017281,
933.000,0.000826582,
932.000,0.000974967,
931.000,0.00222816,
930.000,0.00230576,
929.000,0.00124462,
928.000,0.00136072,
927.000,0.00221465,
926.000,0.00278528,
925.000,0.00384806,
924.000,0.00500098,
923.000,0.00565852,
922.000,0.00564126,
921.000,0.00485086,
920.000,0.00360172,
919.000,0.00233252,
918.000,0.00129884,
917.000,0.00186651,
916.000,0.00252986,
915.000,0.0017874,
914.000,0.00152696,
913.000,0.00247052,
912.000,0.00241606,
911.000,0.00141378,
910.000,0.000666769,
909.000,0.00116034,
908.000,0.00242449,
907.000,0.00374477,
906.000,0.0042117,
905.000,0.00374566,
904.000,0.00303121,
903.000,0.00345211,
902.000,0.00499597,
901.000,0.00519567,
900.000,0.00370051,
899.000,0.00282272,
898.000,0.00334905,
897.000,0.00362929,
896.000,0.00321388,
895.000,0.00266493,
894.000,0.00313789,
893.000,0.00502005,
892.000,0.00700886,
891.000,0.00771648,
890.000,0.00671486,
889.000,0.00556096,
888.000,0.00651351,
887.000,0.00799026,
886.000,0.00791312,
885.000,0.00672586,
884.000,0.00574094,
883.000,0.00570054,
882.000,0.00645966,
881.000,0.00662536,
880.000,0.00554022,
879.000,0.00372718,
878.000,0.00204907,
877.000,0.00182071,
876.000,0.00217569,
875.000,0.00201541,
874.000,0.00179253,
873.000,0.00198631,
872.000,0.00332369,
871.000,0.00491397,
870.000,0.00509572,
869.000,0.00289905,
868.000,0.000882897,
867.000,0.00369727,
866.000,0.00595217,
865.000,0.00637574,
864.000,0.00533153,
863.000,0.0047368,
862.000,0.00555234,
861.000,0.00596826,
860.000,0.0056797,
859.000,0.00486891,
858.000,0.00418877,
857.000,0.00486671,
856.000,0.00543368,
855.000,0.00474439,
854.000,0.00411428,
853.000,0.003708,
852.000,0.00259137,
851.000,0.00136318,
850.000,0.00056829,
849.000,0.000818401,
848.000,0.002079,
847.000,0.00326281,
846.000,0.00524088,
845.000,0.00801783,
844.000,0.00939344,
843.000,0.0082428,
842.000,0.00511415,
841.000,0.00237158,
840.000,0.00275951,
839.000,0.00413137,
838.000,0.00336125,
837.000,0.00107264,
836.000,0.00369606,
835.000,0.00625637,
834.000,0.00600426,
833.000,0.00413442,
832.000,0.0031128,
831.000,0.00409121,
830.000,0.0052234,
829.000,0.00600624,
828.000,0.00693154,
827.000,0.00801941,
826.000,0.00819593,
825.000,0.00606176,
824.000,0.00382125,
823.000,0.00586388,
822.000,0.00732356,
821.000,0.00623326,
820.000,0.00301376,
819.000,0.000697391,
818.000,0.00222801,
817.000,0.00093255,
816.000,0.00301175,
815.000,0.00609588,
814.000,0.00660732,
813.000,0.00634419,
812.000,0.00655716,
811.000,0.00737532,
810.000,0.00705493,
809.000,0.00525985,
808.000,0.00452171,
807.000,0.00404992,
806.000,0.00208627,
805.000,0.00191441,
804.000,0.00281031,
803.000,0.00269715,
802.000,0.00272661,
801.000,0.00319959,
800.000,0.00329287,
799.000,0.0029801,
798.000,0.00222336,
797.000,0.00158291,
796.000,0.002796,
795.000,0.00380095,
794.000,0.00262952,
793.000,0.000906585,
792.000,0.00107273,
791.000,0.00185584,
790.000,0.00405939,
789.000,0.00611524,
788.000,0.00670011,
787.000,0.00646507,
786.000,0.00596532,
785.000,0.00500352,
784.000,0.00376579,
783.000,0.00393202,
782.000,0.00443705,
781.000,0.00304366,
780.000,0.00203754,
779.000,0.00416812,
778.000,0.00565301,
777.000,0.0049448,
776.000,0.00238331,
775.000,0.00176725,
774.000,0.00534658,
773.000,0.00722824,
772.000,0.00675969,
771.000,0.00560968,
770.000,0.00505868,
769.000,0.0049311,
768.000,0.00434459,
767.000,0.00291663,
766.000,0.000922328,
765.000,0.00163716,
764.000,0.00349655,
763.000,0.00299867,
762.000,0.00345329,
761.000,0.00801489,
760.000,0.0119743,
759.000,0.0132556,
758.000,0.0125384,
757.000,0.0104266,
756.000,0.00785279,
755.000,0.00587558,
754.000,0.00558343,
753.000,0.00684983,
752.000,0.00867691,
751.000,0.0105325,
750.000,0.0110323,
749.000,0.00933396,
748.000,0.00504538,
747.000,0.00127078,
746.000,0.00112957,
745.000,0.00069283,
744.000,0.00233367,
743.000,0.0050479,
742.000,0.00615034,
741.000,0.00577702,
740.000,0.00421835,
739.000,0.00316549,
738.000,0.0027719,
737.000,0.00242609,
736.000,0.00321704,
735.000,0.00452295,
734.000,0.00432438,
733.000,0.00273895,
732.000,0.00219592,
731.000,0.00416403,
730.000,0.00591059,
729.000,0.00558962,
728.000,0.00295917,
727.000,0.00124911,
726.000,0.00283128,
725.000,0.00368583,
724.000,0.00438183,
723.000,0.00533185,
722.000,0.00516555,
721.000,0.00486641,
720.000,0.00459095,
719.000,0.00287373,
718.000,0.00231373,
717.000,0.00484576,
716.000,0.00605538,
715.000,0.00538302,
714.000,0.00274899,
713.000,0.00130564,
712.000,0.00525379,
711.000,0.00852069,
710.000,0.00893629,
709.000,0.00692189,
708.000,0.00423435,
707.000,0.00230929,
706.000,0.0015814,
705.000,0.00366619,
704.000,0.00511982,
703.000,0.00471184,
702.000,0.00363618,
701.000,0.0033446,
700.000,0.00530317,
699.000,0.00797236,
698.000,0.00948411,
697.000,0.00929868,
696.000,0.00808145,
695.000,0.00721282,
694.000,0.00821294,
693.000,0.0115581,
692.000,0.015495,
691.000,0.0176609,
690.000,0.0162283,
689.000,0.0115117,
688.000,0.00560476,
687.000,0.0020924,
686.000,0.00244817,
685.000,0.0026698,
684.000,0.00226622,
683.000,0.00132646,
682.000,0.000802364,
681.000,0.00249212,
680.000,0.00309864,
679.000,0.00346159,
678.000,0.00527304,
677.000,0.0060782,
676.000,0.00500906,
675.000,0.00355599,
674.000,0.00318423,
673.000,0.00357874,
672.000,0.00379716,
671.000,0.00390736,
670.000,0.0051883,
669.000,0.00682589,
668.000,0.00700373,
667.000,0.00406883,
666.000,0.00182418,
665.000,0.00485152,
664.000,0.00823073,
663.000,0.0111202,
662.000,0.0136123,
661.000,0.0138046,
660.000,0.0121874,
659.000,0.0103826,
658.000,0.00976325,
657.000,0.00954391,
656.000,0.00882914,
655.000,0.00789012,
654.000,0.00886421,
653.000,0.0120066,
652.000,0.0144619,
651.000,0.0140429,
650.000,0.0106582,
649.000,0.00636734,
648.000,0.00439266,
647.000,0.005215,
646.000,0.00664936,
645.000,0.00748959,
644.000,0.00736036,
643.000,0.00703867,
642.000,0.00739259,
641.000,0.0074598,
640.000,0.00598522,
639.000,0.00440507,
638.000,0.00415488,
637.000,0.00341288,
636.000,0.00310924,
635.000,0.00479202,
634.000,0.00559504,
633.000,0.00575618,
632.000,0.0043278,
631.000,0.00180056,
630.000,0.00177488,
629.000,0.000844255,
628.000,0.00278803,
627.000,0.00420103,
626.000,0.00258192,
625.000,0.00741865,
624.000,0.0127541,
623.000,0.0138256,
622.000,0.0127881,
621.000,0.0114716,
620.000,0.0101837,
619.000,0.00829036,
618.000,0.00846455,
617.000,0.0102482,
616.000,0.0111103,
615.000,0.010247,
614.000,0.00888233,
613.000,0.00790912,
612.000,0.0074337,
611.000,0.00601668,
610.000,0.004952,
609.000,0.00860854,
608.000,0.0132893,
607.000,0.0130218,
606.000,0.00782296,
605.000,0.00565169,
604.000,0.008339,
603.000,0.00743321,
602.000,0.00611478,
601.000,0.0099204,
600.000,0.0151325,
599.000,0.0185049,
598.000,0.0202075,
597.000,0.0206226,
596.000,0.0190438,
595.000,0.0134293,
594.000,0.00813601,
593.000,0.00878635,
592.000,0.00953803,
591.000,0.00554926,
590.000,0.00422652,
589.000,0.0105989,
588.000,0.0171391,
587.000,0.0203851,
586.000,0.0197066,
585.000,0.0138865,
584.000,0.0058051,
583.000,0.00287366,
582.000,0.00664223,
581.000,0.00495608,
580.000,0.00149818,
579.000,0.00655628,
578.000,0.0128726,
577.000,0.0167839,
576.000,0.0203425,
575.000,0.0211139,
574.000,0.019892,
573.000,0.0128325,
572.000,0.00372172,
571.000,0.00785586,
570.000,0.0122608,
569.000,0.0105335,
568.000,0.00701543,
567.000,0.0017094,
566.000,0.00497723,
565.000,0.010989,
564.000,0.0125242,
563.000,0.00895806,
562.000,0.00320581,
561.000,0.005057,
560.000,0.0104034,
559.000,0.011379,
558.000,0.00769549,
557.000,0.00478458,
556.000,0.00689977,
555.000,0.00975373,
554.000,0.0121134,
553.000,0.0135491,
552.000,0.0128877,
551.000,0.010474,
550.000,0.00798227,
549.000,0.00942566,
548.000,0.0132969,
547.000,0.0159604,
546.000,0.0139861,
545.000,0.00742489,
544.000,0.00774566,
543.000,0.0135739,
542.000,0.0147907,
541.000,0.0151628,
540.000,0.0179208,
539.000,0.0188216,
538.000,0.0132136,
537.000,0.0122167,
536.000,0.020296,
535.000,0.0236461,
534.000,0.0218831,
533.000,0.0189072,
532.000,0.0141218,
531.000,0.0110224,
530.000,0.0121819,
529.000,0.0101292,
528.000,0.00772846,
527.000,0.0161453,
526.000,0.0250231,
525.000,0.0288873,
524.000,0.0222745,
523.000,0.00742853,
522.000,0.00883618,
521.000,0.0176567,
520.000,0.0177635,
519.000,0.0111891,
518.000,0.00795031,
517.000,0.0155177,
516.000,0.0198911,
515.000,0.0180497,
514.000,0.013532,
513.000,0.00417264,
512.000,0.00645145,
511.000,0.0170251,
510.000,0.023633,
509.000,0.0175785,
508.000,0.00383117,
507.000,0.00947235,
506.000,0.0182955,
505.000,0.0152348,
504.000,0.0115079,
503.000,0.0173604,
502.000,0.0235165,
501.000,0.0216604,
500.000,0.0199606,
499.000,0.0203092,
498.000,0.0200994,
497.000,0.0141321,
496.000,0.00858857,
495.000,0.00993948,
494.000,0.0139417,
493.000,0.0215577,
492.000,0.0342302,
491.000,0.0473362,
490.000,0.0559398,
489.000,0.0580489,
488.000,0.0559187,
487.000,0.051254,
486.000,0.0419005,
485.000,0.0299865,
484.000,0.0191311,
483.000,0.0172692,
482.000,0.0286049,
481.000,0.0416769,
480.000,0.0485621,
479.000,0.051204,
478.000,0.0361244,
477.000,0.0176127,
476.000,0.0261437,
475.000,0.0297886,
474.000,0.0150585,
473.000,0.00749681,
472.000,0.0119081,
471.000,0.0135377,
470.000,0.0185204,
469.000,0.032135,
468.000,0.0427138,
467.000,0.0371825,
466.000,0.0202848,
465.000,0.0205688,
464.000,0.0232769,
463.000,0.0150718,
462.000,0.0189408,
461.000,0.0187894,
460.000,0.00571503,
459.000,0.0104402,
458.000,0.026757,
457.000,0.0372117,
456.000,0.0404166,
455.000,0.0388508,
454.000,0.037756,
453.000,0.0391713,
452.000,0.0463986,
451.000,0.0508083,
450.000,0.0449418,
449.000,0.0259329,
448.000,0.00725763,
447.000,0.0115297,
446.000,0.0221034,
445.000,0.0260623,
444.000,0.027585,
443.000,0.030724,
442.000,0.0383476,
441.000,0.045955,
440.000,0.0514183,
439.000,0.0542267,
438.000,0.0545659,
437.000,0.0532055,
436.000,0.0518707,
435.000,0.052698,
434.000,0.0529029,
433.000,0.0508818,
432.000,0.0503736,
431.000,0.0552122,
430.000,0.0757668,
429.000,0.105882,
428.000,0.121446,
427.000,0.118404,
426.000,0.106852,
425.000,0.0899658,
424.000,0.0696859,
423.000,0.057498,
422.000,0.0648988,
421.000,0.0650304,
420.000,0.0710259,
419.000,0.117765,
418.000,0.149989,
417.000,0.127459,
416.000,0.075588,
415.000,0.0575695,
414.000,0.0710571,
413.000,0.0625504,
412.000,0.0271146,
411.000,0.0173187,
410.000,0.0635971,
409.000,0.103842,
408.000,0.124627,
407.000,0.133877,
406.000,0.133374,
405.000,0.12076,
404.000,0.100313,
403.000,0.107495,
402.000,0.112871,
401.000,0.0763073,
400.000,0.0182787,
