,d2o 192 By Administrator Date Thursday. December 16 2021,
Time,16:40:40,
Wavenumbers [1/cm],Transmittance %,
7000.000,5.41311,
6999.000,5.38257,
6998.000,5.35628,
6997.000,5.33827,
6996.000,5.32693,
6995.000,5.31636,
6994.000,5.30129,
6993.000,5.28083,
6992.000,5.25742,
6991.000,5.23306,
6990.000,5.20747,
6989.000,5.17969,
6988.000,5.15046,
6987.000,5.12323,
6986.000,5.10227,
6985.000,5.08849,
6984.000,5.0769,
6983.000,5.06034,
6982.000,5.03675,
6981.000,5.01079,
6980.000,4.98815,
6979.000,4.97028,
6978.000,4.95564,
6977.000,4.94304,
6976.000,4.93109,
6975.000,4.91703,
6974.000,4.89999,
6973.000,4.88359,
6972.000,4.87135,
6971.000,4.86028,
6970.000,4.8432,
6969.000,4.81852,
6968.000,4.79324,
6967.000,4.77439,
6966.000,4.76134,
6965.000,4.74859,
6964.000,4.73343,
6963.000,4.71871,
6962.000,4.70828,
6961.000,4.70185,
6960.000,4.69477,
6959.000,4.68211,
6958.000,4.66319,
6957.000,4.64212,
6956.000,4.62382,
6955.000,4.60957,
6954.000,4.59777,
6953.000,4.58783,
6952.000,4.58081,
6951.000,4.57607,
6950.000,4.57035,
6949.000,4.56141,
6948.000,4.55078,
6947.000,4.54112,
6946.000,4.53221,
6945.000,4.52145,
6944.000,4.50783,
6943.000,4.49352,
6942.000,4.48181,
6941.000,4.47443,
6940.000,4.47061,
6939.000,4.46793,
6938.000,4.46439,
6937.000,4.45998,
6936.000,4.45559,
6935.000,4.45024,
6934.000,4.44084,
6933.000,4.42607,
6932.000,4.41001,
6931.000,4.39979,
6930.000,4.39853,
6929.000,4.40217,
6928.000,4.40437,
6927.000,4.40265,
6926.000,4.39822,
6925.000,4.39124,
6924.000,4.37974,
6923.000,4.36463,
6922.000,4.35217,
6921.000,4.34761,
6920.000,4.34817,
6919.000,4.34632,
6918.000,4.33916,
6917.000,4.33102,
6916.000,4.32649,
6915.000,4.32468,
6914.000,4.32266,
6913.000,4.32098,
6912.000,4.32233,
6911.000,4.32687,
6910.000,4.33199,
6909.000,4.335,
6908.000,4.33379,
6907.000,4.32662,
6906.000,4.31447,
6905.000,4.3026,
6904.000,4.29628,
6903.000,4.29533,
6902.000,4.29545,
6901.000,4.29411,
6900.000,4.29288,
6899.000,4.29433,
6898.000,4.29907,
6897.000,4.30593,
6896.000,4.31271,
6895.000,4.31708,
6894.000,4.31892,
6893.000,4.32147,
6892.000,4.32788,
6891.000,4.33716,
6890.000,4.34548,
6889.000,4.35097,
6888.000,4.35402,
6887.000,4.35395,
6886.000,4.34957,
6885.000,4.34338,
6884.000,4.34068,
6883.000,4.34379,
6882.000,4.35048,
6881.000,4.35933,
6880.000,4.37271,
6879.000,4.39156,
6878.000,4.41077,
6877.000,4.42385,
6876.000,4.42976,
6875.000,4.43229,
6874.000,4.4347,
6873.000,4.43781,
6872.000,4.44227,
6871.000,4.44929,
6870.000,4.45864,
6869.000,4.46875,
6868.000,4.47944,
6867.000,4.49248,
6866.000,4.50867,
6865.000,4.52588,
6864.000,4.54042,
6863.000,4.55016,
6862.000,4.5558,
6861.000,4.55982,
6860.000,4.56462,
6859.000,4.57135,
6858.000,4.58017,
6857.000,4.59091,
6856.000,4.60326,
6855.000,4.61673,
6854.000,4.63111,
6853.000,4.64634,
6852.000,4.66123,
6851.000,4.67321,
6850.000,4.68096,
6849.000,4.68712,
6848.000,4.69659,
6847.000,4.71189,
6846.000,4.73124,
6845.000,4.75106,
6844.000,4.76905,
6843.000,4.78484,
6842.000,4.79909,
6841.000,4.81258,
6840.000,4.82514,
6839.000,4.83583,
6838.000,4.84552,
6837.000,4.85798,
6836.000,4.87632,
6835.000,4.89827,
6834.000,4.91782,
6833.000,4.93236,
6832.000,4.9457,
6831.000,4.96263,
6830.000,4.98331,
6829.000,5.00501,
6828.000,5.02667,
6827.000,5.04847,
6826.000,5.06854,
6825.000,5.08336,
6824.000,5.09228,
6823.000,5.09967,
6822.000,5.11161,
6821.000,5.13112,
6820.000,5.15667,
6819.000,5.18459,
6818.000,5.21214,
6817.000,5.23867,
6816.000,5.2643,
6815.000,5.28842,
6814.000,5.30986,
6813.000,5.32845,
6812.000,5.34593,
6811.000,5.36483,
6810.000,5.38665,
6809.000,5.41088,
6808.000,5.43539,
6807.000,5.45842,
6806.000,5.48029,
6805.000,5.50277,
6804.000,5.52632,
6803.000,5.54876,
6802.000,5.56745,
6801.000,5.58239,
6800.000,5.59651,
6799.000,5.61373,
6798.000,5.63684,
6797.000,5.66577,
6796.000,5.6969,
6795.000,5.72614,
6794.000,5.75357,
6793.000,5.78298,
6792.000,5.81525,
6791.000,5.84541,
6790.000,5.86931,
6789.000,5.89054,
6788.000,5.91558,
6787.000,5.94396,
6786.000,5.96903,
6785.000,5.98875,
6784.000,6.009,
6783.000,6.03465,
6782.000,6.06319,
6781.000,6.09027,
6780.000,6.11696,
6779.000,6.14762,
6778.000,6.18301,
6777.000,6.21919,
6776.000,6.2525,
6775.000,6.28279,
6774.000,6.31238,
6773.000,6.34344,
6772.000,6.37565,
6771.000,6.40594,
6770.000,6.43203,
6769.000,6.45655,
6768.000,6.48498,
6767.000,6.51878,
6766.000,6.55346,
6765.000,6.58514,
6764.000,6.61573,
6763.000,6.64923,
6762.000,6.68525,
6761.000,6.71938,
6760.000,6.74904,
6759.000,6.77588,
6758.000,6.80314,
6757.000,6.83265,
6756.000,6.86401,
6755.000,6.8956,
6754.000,6.92685,
6753.000,6.95958,
6752.000,6.99553,
6751.000,7.03236,
6750.000,7.06501,
6749.000,7.09206,
6748.000,7.11836,
6747.000,7.14939,
6746.000,7.18542,
6745.000,7.2233,
6744.000,7.26155,
6743.000,7.30099,
6742.000,7.34196,
6741.000,7.38334,
6740.000,7.42351,
6739.000,7.46123,
6738.000,7.49661,
6737.000,7.53218,
6736.000,7.57106,
6735.000,7.61272,
6734.000,7.65268,
6733.000,7.68835,
6732.000,7.72259,
6731.000,7.75934,
6730.000,7.79815,
6729.000,7.83602,
6728.000,7.87262,
6727.000,7.9103,
6726.000,7.94983,
6725.000,7.98929,
6724.000,8.02733,
6723.000,8.06509,
6722.000,8.10423,
6721.000,8.14487,
6720.000,8.18624,
6719.000,8.22803,
6718.000,8.27058,
6717.000,8.31412,
6716.000,8.35806,
6715.000,8.40127,
6714.000,8.44319,
6713.000,8.4846,
6712.000,8.52626,
6711.000,8.56768,
6710.000,8.60836,
6709.000,8.64959,
6708.000,8.69269,
6707.000,8.73594,
6706.000,8.7762,
6705.000,8.8137,
6704.000,8.85252,
6703.000,8.89514,
6702.000,8.9398,
6701.000,8.98451,
6700.000,9.03033,
6699.000,9.07837,
6698.000,9.12706,
6697.000,9.1732,
6696.000,9.21832,
6695.000,9.26495,
6694.000,9.31316,
6693.000,9.36126,
6692.000,9.40779,
6691.000,9.45323,
6690.000,9.49834,
6689.000,9.54288,
6688.000,9.58562,
6687.000,9.62553,
6686.000,9.6637,
6685.000,9.70348,
6684.000,9.74752,
6683.000,9.7946,
6682.000,9.84138,
6681.000,9.88668,
6680.000,9.93187,
6679.000,9.97747,
6678.000,10.0222,
6677.000,10.0661,
6676.000,10.1119,
6675.000,10.1618,
6674.000,10.215,
6673.000,10.2694,
6672.000,10.3229,
6671.000,10.3735,
6670.000,10.4195,
6669.000,10.4611,
6668.000,10.5009,
6667.000,10.5422,
6666.000,10.5876,
6665.000,10.6394,
6664.000,10.696,
6663.000,10.7522,
6662.000,10.8034,
6661.000,10.851,
6660.000,10.8985,
6659.000,10.9456,
6658.000,10.9891,
6657.000,11.0304,
6656.000,11.0752,
6655.000,11.1247,
6654.000,11.1735,
6653.000,11.218,
6652.000,11.2606,
6651.000,11.3035,
6650.000,11.3443,
6649.000,11.381,
6648.000,11.4169,
6647.000,11.4569,
6646.000,11.5014,
6645.000,11.5477,
6644.000,11.5944,
6643.000,11.6404,
6642.000,11.6835,
6641.000,11.7216,
6640.000,11.7552,
6639.000,11.785,
6638.000,11.8111,
6637.000,11.8358,
6636.000,11.8632,
6635.000,11.8946,
6634.000,11.9263,
6633.000,11.9546,
6632.000,11.9792,
6631.000,12.0013,
6630.000,12.0201,
6629.000,12.0351,
6628.000,12.0485,
6627.000,12.0628,
6626.000,12.0786,
6625.000,12.0952,
6624.000,12.1126,
6623.000,12.1291,
6622.000,12.1419,
6621.000,12.1499,
6620.000,12.1542,
6619.000,12.1551,
6618.000,12.1518,
6617.000,12.1471,
6616.000,12.1454,
6615.000,12.1468,
6614.000,12.1454,
6613.000,12.1372,
6612.000,12.1245,
6611.000,12.1096,
6610.000,12.0906,
6609.000,12.0653,
6608.000,12.0371,
6607.000,12.0106,
6606.000,11.9861,
6605.000,11.9603,
6604.000,11.9314,
6603.000,11.9001,
6602.000,11.8671,
6601.000,11.8337,
6600.000,11.8013,
6599.000,11.7694,
6598.000,11.7345,
6597.000,11.6948,
6596.000,11.6527,
6595.000,11.611,
6594.000,11.569,
6593.000,11.5245,
6592.000,11.4777,
6591.000,11.4297,
6590.000,11.3803,
6589.000,11.3288,
6588.000,11.2756,
6587.000,11.2211,
6586.000,11.1649,
6585.000,11.1074,
6584.000,11.0503,
6583.000,10.9943,
6582.000,10.9383,
6581.000,10.8815,
6580.000,10.8244,
6579.000,10.7671,
6578.000,10.7091,
6577.000,10.6505,
6576.000,10.591,
6575.000,10.5288,
6574.000,10.4627,
6573.000,10.3957,
6572.000,10.3315,
6571.000,10.2681,
6570.000,10.1996,
6569.000,10.1245,
6568.000,10.0483,
6567.000,9.97511,
6566.000,9.9033,
6565.000,9.83123,
6564.000,9.76203,
6563.000,9.69884,
6562.000,9.63924,
6561.000,9.57837,
6560.000,9.51519,
6559.000,9.4519,
6558.000,9.38906,
6557.000,9.32467,
6556.000,9.25717,
6555.000,9.18727,
6554.000,9.1173,
6553.000,9.04982,
6552.000,8.98547,
6551.000,8.92177,
6550.000,8.85564,
6549.000,8.78713,
6548.000,8.71875,
6547.000,8.65148,
6546.000,8.58492,
6545.000,8.52065,
6544.000,8.46109,
6543.000,8.4042,
6542.000,8.34388,
6541.000,8.27734,
6540.000,8.20835,
6539.000,8.14127,
6538.000,8.0761,
6537.000,8.01177,
6536.000,7.94988,
6535.000,7.89202,
6534.000,7.83614,
6533.000,7.77907,
6532.000,7.72017,
6531.000,7.66028,
6530.000,7.59932,
6529.000,7.53769,
6528.000,7.47756,
6527.000,7.42019,
6526.000,7.36365,
6525.000,7.30575,
6524.000,7.24743,
6523.000,7.19102,
6522.000,7.1367,
6521.000,7.08269,
6520.000,7.02771,
6519.000,6.9715,
6518.000,6.9148,
6517.000,6.86007,
6516.000,6.81033,
6515.000,6.76523,
6514.000,6.72047,
6513.000,6.67298,
6512.000,6.62454,
6511.000,6.57822,
6510.000,6.5332,
6509.000,6.48622,
6508.000,6.43688,
6507.000,6.38849,
6506.000,6.34359,
6505.000,6.30097,
6504.000,6.25759,
6503.000,6.21189,
6502.000,6.16467,
6501.000,6.11772,
6500.000,6.07208,
6499.000,6.02777,
6498.000,5.98474,
6497.000,5.94355,
6496.000,5.90444,
6495.000,5.8663,
6494.000,5.82767,
6493.000,5.7884,
6492.000,5.74944,
6491.000,5.71118,
6490.000,5.67307,
6489.000,5.63443,
6488.000,5.5948,
6487.000,5.55428,
6486.000,5.51472,
6485.000,5.47906,
6484.000,5.44794,
6483.000,5.4183,
6482.000,5.38693,
6481.000,5.35401,
6480.000,5.32061,
6479.000,5.28526,
6478.000,5.2464,
6477.000,5.20692,
6476.000,5.17179,
6475.000,5.142,
6474.000,5.11477,
6473.000,5.08884,
6472.000,5.06486,
6471.000,5.04085,
6470.000,5.01289,
6469.000,4.9814,
6468.000,4.9516,
6467.000,4.92573,
6466.000,4.89985,
6465.000,4.87039,
6464.000,4.83962,
6463.000,4.81135,
6462.000,4.78536,
6461.000,4.75919,
6460.000,4.73246,
6459.000,4.70618,
6458.000,4.68008,
6457.000,4.65347,
6456.000,4.62691,
6455.000,4.60065,
6454.000,4.57352,
6453.000,4.54562,
6452.000,4.51941,
6451.000,4.49598,
6450.000,4.47255,
6449.000,4.44635,
6448.000,4.41881,
6447.000,4.3932,
6446.000,4.37019,
6445.000,4.34869,
6444.000,4.32923,
6443.000,4.31319,
6442.000,4.29957,
6441.000,4.28545,
6440.000,4.26914,
6439.000,4.25076,
6438.000,4.23058,
6437.000,4.20909,
6436.000,4.188,
6435.000,4.16909,
6434.000,4.1524,
6433.000,4.13688,
6432.000,4.122,
6431.000,4.1071,
6430.000,4.09023,
6429.000,4.0695,
6428.000,4.04523,
6427.000,4.01957,
6426.000,3.99462,
6425.000,3.97165,
6424.000,3.95107,
6423.000,3.93221,
6422.000,3.91406,
6421.000,3.89704,
6420.000,3.8826,
6419.000,3.87029,
6418.000,3.85731,
6417.000,3.84191,
6416.000,3.82566,
6415.000,3.8106,
6414.000,3.79648,
6413.000,3.7822,
6412.000,3.76806,
6411.000,3.75442,
6410.000,3.73978,
6409.000,3.72286,
6408.000,3.70505,
6407.000,3.68846,
6406.000,3.67298,
6405.000,3.65764,
6404.000,3.64368,
6403.000,3.63327,
6402.000,3.62557,
6401.000,3.61724,
6400.000,3.6067,
6399.000,3.59556,
6398.000,3.58541,
6397.000,3.5755,
6396.000,3.56419,
6395.000,3.55104,
6394.000,3.53686,
6393.000,3.52294,
6392.000,3.51086,
6391.000,3.50184,
6390.000,3.49559,
6389.000,3.49071,
6388.000,3.48595,
6387.000,3.48053,
6386.000,3.47337,
6385.000,3.46323,
6384.000,3.45033,
6383.000,3.43683,
6382.000,3.42523,
6381.000,3.41624,
6380.000,3.4084,
6379.000,3.39976,
6378.000,3.39006,
6377.000,3.38108,
6376.000,3.37451,
6375.000,3.36989,
6374.000,3.36535,
6373.000,3.35988,
6372.000,3.35352,
6371.000,3.34563,
6370.000,3.33496,
6369.000,3.32215,
6368.000,3.31052,
6367.000,3.3029,
6366.000,3.29896,
6365.000,3.29646,
6364.000,3.29394,
6363.000,3.29119,
6362.000,3.28809,
6361.000,3.28472,
6360.000,3.28188,
6359.000,3.2803,
6358.000,3.27969,
6357.000,3.27933,
6356.000,3.27896,
6355.000,3.27819,
6354.000,3.27597,
6353.000,3.2718,
6352.000,3.26676,
6351.000,3.26243,
6350.000,3.25921,
6349.000,3.25664,
6348.000,3.25472,
6347.000,3.25405,
6346.000,3.25489,
6345.000,3.25669,
6344.000,3.25817,
6343.000,3.25771,
6342.000,3.25481,
6341.000,3.25132,
6340.000,3.25008,
6339.000,3.25152,
6338.000,3.25327,
6337.000,3.25378,
6336.000,3.25481,
6335.000,3.25841,
6334.000,3.26356,
6333.000,3.26782,
6332.000,3.27118,
6331.000,3.2755,
6330.000,3.28044,
6329.000,3.28319,
6328.000,3.28303,
6327.000,3.28325,
6326.000,3.28695,
6325.000,3.29263,
6324.000,3.29623,
6323.000,3.29666,
6322.000,3.29676,
6321.000,3.29909,
6320.000,3.3029,
6319.000,3.30681,
6318.000,3.31207,
6317.000,3.32128,
6316.000,3.33407,
6315.000,3.34657,
6314.000,3.3556,
6313.000,3.36182,
6312.000,3.36811,
6311.000,3.3762,
6310.000,3.38584,
6309.000,3.39583,
6308.000,3.40461,
6307.000,3.41101,
6306.000,3.41571,
6305.000,3.42127,
6304.000,3.42957,
6303.000,3.43979,
6302.000,3.45002,
6301.000,3.45995,
6300.000,3.47044,
6299.000,3.48173,
6298.000,3.49371,
6297.000,3.50732,
6296.000,3.52359,
6295.000,3.54153,
6294.000,3.55866,
6293.000,3.57322,
6292.000,3.58452,
6291.000,3.59209,
6290.000,3.5969,
6289.000,3.60251,
6288.000,3.61251,
6287.000,3.62699,
6286.000,3.64358,
6285.000,3.66124,
6284.000,3.68021,
6283.000,3.69878,
6282.000,3.71388,
6281.000,3.7253,
6280.000,3.73609,
6279.000,3.7481,
6278.000,3.76046,
6277.000,3.77329,
6276.000,3.78932,
6275.000,3.81012,
6274.000,3.83344,
6273.000,3.85599,
6272.000,3.87675,
6271.000,3.89586,
6270.000,3.9126,
6269.000,3.92656,
6268.000,3.93926,
6267.000,3.95287,
6266.000,3.96843,
6265.000,3.98641,
6264.000,4.00737,
6263.000,4.03067,
6262.000,4.05413,
6261.000,4.07603,
6260.000,4.09631,
6259.000,4.11512,
6258.000,4.13214,
6257.000,4.14803,
6256.000,4.16439,
6255.000,4.18145,
6254.000,4.19793,
6253.000,4.21431,
6252.000,4.23338,
6251.000,4.25662,
6250.000,4.2825,
6249.000,4.30967,
6248.000,4.33879,
6247.000,4.36902,
6246.000,4.39587,
6245.000,4.41569,
6244.000,4.43046,
6243.000,4.44511,
6242.000,4.4616,
6241.000,4.4788,
6240.000,4.497,
6239.000,4.51906,
6238.000,4.54677,
6237.000,4.57844,
6236.000,4.61049,
6235.000,4.64019,
6234.000,4.66689,
6233.000,4.69168,
6232.000,4.7155,
6231.000,4.73795,
6230.000,4.75894,
6229.000,4.78125,
6228.000,4.80871,
6227.000,4.84083,
6226.000,4.87221,
6225.000,4.89872,
6224.000,4.92181,
6223.000,4.94471,
6222.000,4.96736,
6221.000,4.98833,
6220.000,5.00966,
6219.000,5.03561,
6218.000,5.067,
6217.000,5.10019,
6216.000,5.13153,
6215.000,5.16041,
6214.000,5.1878,
6213.000,5.21424,
6212.000,5.23964,
6211.000,5.26402,
6210.000,5.28809,
6209.000,5.31363,
6208.000,5.34243,
6207.000,5.37356,
6206.000,5.40328,
6205.000,5.42917,
6204.000,5.45325,
6203.000,5.47922,
6202.000,5.50785,
6201.000,5.53718,
6200.000,5.56653,
6199.000,5.59746,
6198.000,5.63053,
6197.000,5.66324,
6196.000,5.69249,
6195.000,5.71805,
6194.000,5.74317,
6193.000,5.77179,
6192.000,5.80515,
6191.000,5.84086,
6190.000,5.87548,
6189.000,5.9079,
6188.000,5.93936,
6187.000,5.97064,
6186.000,6.00103,
6185.000,6.03054,
6184.000,6.06108,
6183.000,6.09433,
6182.000,6.12979,
6181.000,6.16586,
6180.000,6.20188,
6179.000,6.23784,
6178.000,6.27356,
6177.000,6.30916,
6176.000,6.34535,
6175.000,6.38261,
6174.000,6.42054,
6173.000,6.45873,
6172.000,6.49685,
6171.000,6.53373,
6170.000,6.56773,
6169.000,6.59879,
6168.000,6.62892,
6167.000,6.66038,
6166.000,6.69475,
6165.000,6.73344,
6164.000,6.77673,
6163.000,6.82202,
6162.000,6.86544,
6161.000,6.90576,
6160.000,6.94482,
6159.000,6.98369,
6158.000,7.0214,
6157.000,7.05776,
6156.000,7.09439,
6155.000,7.13169,
6154.000,7.16806,
6153.000,7.20337,
6152.000,7.24027,
6151.000,7.28049,
6150.000,7.32275,
6149.000,7.36593,
6148.000,7.41106,
6147.000,7.45803,
6146.000,7.50374,
6145.000,7.54615,
6144.000,7.58762,
6143.000,7.63134,
6142.000,7.67665,
6141.000,7.72087,
6140.000,7.76337,
6139.000,7.80506,
6138.000,7.84567,
6137.000,7.88478,
6136.000,7.92413,
6135.000,7.96617,
6134.000,8.01112,
6133.000,8.05766,
6132.000,8.10483,
6131.000,8.15155,
6130.000,8.19601,
6129.000,8.23806,
6128.000,8.28071,
6127.000,8.32657,
6126.000,8.37452,
6125.000,8.4221,
6124.000,8.46943,
6123.000,8.51783,
6122.000,8.56617,
6121.000,8.61212,
6120.000,8.65613,
6119.000,8.70143,
6118.000,8.74982,
6117.000,8.79988,
6116.000,8.84958,
6115.000,8.8985,
6114.000,8.94741,
6113.000,8.99676,
6112.000,9.04584,
6111.000,9.09316,
6110.000,9.13827,
6109.000,9.18307,
6108.000,9.22991,
6107.000,9.27834,
6106.000,9.32571,
6105.000,9.3713,
6104.000,9.41708,
6103.000,9.46371,
6102.000,9.50856,
6101.000,9.5498,
6100.000,9.5897,
6099.000,9.63175,
6098.000,9.67643,
6097.000,9.72195,
6096.000,9.76745,
6095.000,9.81309,
6094.000,9.85844,
6093.000,9.90232,
6092.000,9.94381,
6091.000,9.98249,
6090.000,10.019,
6089.000,10.0554,
6088.000,10.093,
6087.000,10.1295,
6086.000,10.1608,
6085.000,10.1866,
6084.000,10.2109,
6083.000,10.2362,
6082.000,10.2615,
6081.000,10.2862,
6080.000,10.3126,
6079.000,10.3416,
6078.000,10.3697,
6077.000,10.3931,
6076.000,10.4124,
6075.000,10.4304,
6074.000,10.4472,
6073.000,10.4621,
6072.000,10.4754,
6071.000,10.4873,
6070.000,10.496,
6069.000,10.5003,
6068.000,10.5019,
6067.000,10.5023,
6066.000,10.4996,
6065.000,10.4917,
6064.000,10.4801,
6063.000,10.4683,
6062.000,10.4573,
6061.000,10.4462,
6060.000,10.4342,
6059.000,10.4213,
6058.000,10.4064,
6057.000,10.3875,
6056.000,10.3645,
6055.000,10.3387,
6054.000,10.3113,
6053.000,10.2827,
6052.000,10.2528,
6051.000,10.2202,
6050.000,10.183,
6049.000,10.1419,
6048.000,10.1008,
6047.000,10.0628,
6046.000,10.0269,
6045.000,9.99,
6044.000,9.95126,
6043.000,9.91127,
6042.000,9.86951,
6041.000,9.82442,
6040.000,9.77541,
6039.000,9.72315,
6038.000,9.66818,
6037.000,9.61094,
6036.000,9.55244,
6035.000,9.49391,
6034.000,9.43627,
6033.000,9.38042,
6032.000,9.32699,
6031.000,9.27494,
6030.000,9.22137,
6029.000,9.16396,
6028.000,9.1029,
6027.000,9.03962,
6026.000,8.97496,
6025.000,8.90937,
6024.000,8.84416,
6023.000,8.78121,
6022.000,8.72134,
6021.000,8.66334,
6020.000,8.60449,
6019.000,8.54222,
6018.000,8.47603,
6017.000,8.40766,
6016.000,8.33913,
6015.000,8.27138,
6014.000,8.20521,
6013.000,8.14195,
6012.000,8.08149,
6011.000,8.02076,
6010.000,7.95687,
6009.000,7.89098,
6008.000,7.82687,
6007.000,7.76613,
6006.000,7.70726,
6005.000,7.64902,
6004.000,7.59171,
6003.000,7.53452,
6002.000,7.47469,
6001.000,7.41057,
6000.000,7.34378,
5999.000,7.27745,
5998.000,7.21371,
5997.000,7.15294,
5996.000,7.09386,
5995.000,7.03431,
5994.000,6.97352,
5993.000,6.91336,
5992.000,6.85582,
5991.000,6.79983,
5990.000,6.74288,
5989.000,6.68486,
5988.000,6.62776,
5987.000,6.57187,
5986.000,6.51571,
5985.000,6.4594,
5984.000,6.40489,
5983.000,6.35228,
5982.000,6.29936,
5981.000,6.24531,
5980.000,6.19186,
5979.000,6.13995,
5978.000,6.08849,
5977.000,6.03731,
5976.000,5.9879,
5975.000,5.93997,
5974.000,5.89106,
5973.000,5.84086,
5972.000,5.79294,
5971.000,5.74958,
5970.000,5.70818,
5969.000,5.6651,
5968.000,5.6202,
5967.000,5.57506,
5966.000,5.52935,
5965.000,5.48204,
5964.000,5.43446,
5963.000,5.38883,
5962.000,5.34512,
5961.000,5.30214,
5960.000,5.26036,
5959.000,5.22101,
5958.000,5.18334,
5957.000,5.14536,
5956.000,5.10672,
5955.000,5.06849,
5954.000,5.03047,
5953.000,4.99143,
5952.000,4.95171,
5951.000,4.91332,
5950.000,4.87717,
5949.000,4.84186,
5948.000,4.80581,
5947.000,4.76925,
5946.000,4.7338,
5945.000,4.70076,
5944.000,4.66987,
5943.000,4.63931,
5942.000,4.6071,
5941.000,4.57266,
5940.000,4.53665,
5939.000,4.49951,
5938.000,4.46183,
5937.000,4.42607,
5936.000,4.39547,
5935.000,4.36977,
5934.000,4.34411,
5933.000,4.31429,
5932.000,4.2813,
5931.000,4.24891,
5930.000,4.21871,
5929.000,4.19004,
5928.000,4.16329,
5927.000,4.13959,
5926.000,4.11738,
5925.000,4.09264,
5924.000,4.06355,
5923.000,4.03259,
5922.000,4.00322,
5921.000,3.97654,
5920.000,3.95184,
5919.000,3.92837,
5918.000,3.90537,
5917.000,3.88156,
5916.000,3.85607,
5915.000,3.82922,
5914.000,3.80204,
5913.000,3.77547,
5912.000,3.75054,
5911.000,3.72799,
5910.000,3.70713,
5909.000,3.68579,
5908.000,3.66224,
5907.000,3.6368,
5906.000,3.61116,
5905.000,3.58688,
5904.000,3.56489,
5903.000,3.54557,
5902.000,3.52848,
5901.000,3.51233,
5900.000,3.49572,
5899.000,3.47784,
5898.000,3.45839,
5897.000,3.4375,
5896.000,3.41602,
5895.000,3.39539,
5894.000,3.37633,
5893.000,3.35803,
5892.000,3.33913,
5891.000,3.3192,
5890.000,3.29879,
5889.000,3.27851,
5888.000,3.25865,
5887.000,3.23974,
5886.000,3.22249,
5885.000,3.20675,
5884.000,3.19115,
5883.000,3.17435,
5882.000,3.15636,
5881.000,3.13837,
5880.000,3.1214,
5879.000,3.10542,
5878.000,3.08979,
5877.000,3.07383,
5876.000,3.05703,
5875.000,3.03918,
5874.000,3.02077,
5873.000,3.00316,
5872.000,2.98772,
5871.000,2.97469,
5870.000,2.96281,
5869.000,2.95026,
5868.000,2.93596,
5867.000,2.92025,
5866.000,2.90457,
5865.000,2.89028,
5864.000,2.87779,
5863.000,2.86648,
5862.000,2.85544,
5861.000,2.84398,
5860.000,2.83179,
5859.000,2.81905,
5858.000,2.80635,
5857.000,2.79418,
5856.000,2.78207,
5855.000,2.76893,
5854.000,2.75437,
5853.000,2.73923,
5852.000,2.72462,
5851.000,2.71101,
5850.000,2.69858,
5849.000,2.68755,
5848.000,2.67751,
5847.000,2.66722,
5846.000,2.65577,
5845.000,2.64351,
5844.000,2.63089,
5843.000,2.61722,
5842.000,2.60195,
5841.000,2.5867,
5840.000,2.5744,
5839.000,2.56624,
5838.000,2.5607,
5837.000,2.55578,
5836.000,2.55049,
5835.000,2.54412,
5834.000,2.53538,
5833.000,2.52369,
5832.000,2.51048,
5831.000,2.49835,
5830.000,2.48892,
5829.000,2.48204,
5828.000,2.47648,
5827.000,2.47089,
5826.000,2.46432,
5825.000,2.45659,
5824.000,2.44801,
5823.000,2.43877,
5822.000,2.42902,
5821.000,2.4196,
5820.000,2.41198,
5819.000,2.40689,
5818.000,2.40336,
5817.000,2.39937,
5816.000,2.39337,
5815.000,2.38498,
5814.000,2.37508,
5813.000,2.36553,
5812.000,2.35813,
5811.000,2.35314,
5810.000,2.34897,
5809.000,2.34373,
5808.000,2.33688,
5807.000,2.32918,
5806.000,2.32178,
5805.000,2.31603,
5804.000,2.31353,
5803.000,2.31508,
5802.000,2.31919,
5801.000,2.32253,
5800.000,2.32256,
5799.000,2.31937,
5798.000,2.31482,
5797.000,2.31023,
5796.000,2.30563,
5795.000,2.301,
5794.000,2.29728,
5793.000,2.29546,
5792.000,2.2952,
5791.000,2.29498,
5790.000,2.29383,
5789.000,2.2922,
5788.000,2.29123,
5787.000,2.29178,
5786.000,2.2943,
5785.000,2.29868,
5784.000,2.3033,
5783.000,2.30537,
5782.000,2.30342,
5781.000,2.29928,
5780.000,2.29671,
5779.000,2.2978,
5778.000,2.30176,
5777.000,2.30665,
5776.000,2.3109,
5775.000,2.31351,
5774.000,2.3144,
5773.000,2.31545,
5772.000,2.3197,
5771.000,2.32838,
5770.000,2.33917,
5769.000,2.34833,
5768.000,2.35408,
5767.000,2.35733,
5766.000,2.35974,
5765.000,2.36255,
5764.000,2.3669,
5763.000,2.37391,
5762.000,2.38352,
5761.000,2.39391,
5760.000,2.40297,
5759.000,2.41017,
5758.000,2.41649,
5757.000,2.4229,
5756.000,2.42966,
5755.000,2.43731,
5754.000,2.44728,
5753.000,2.46032,
5752.000,2.47447,
5751.000,2.48624,
5750.000,2.49379,
5749.000,2.49843,
5748.000,2.50233,
5747.000,2.50635,
5746.000,2.51101,
5745.000,2.51804,
5744.000,2.52913,
5743.000,2.54364,
5742.000,2.55928,
5741.000,2.57474,
5740.000,2.58992,
5739.000,2.60379,
5738.000,2.61423,
5737.000,2.62101,
5736.000,2.62712,
5735.000,2.63606,
5734.000,2.64883,
5733.000,2.66442,
5732.000,2.68184,
5731.000,2.7003,
5730.000,2.71828,
5729.000,2.73423,
5728.000,2.74815,
5727.000,2.76161,
5726.000,2.77598,
5725.000,2.7915,
5724.000,2.80768,
5723.000,2.8242,
5722.000,2.84123,
5721.000,2.8591,
5720.000,2.87764,
5719.000,2.89596,
5718.000,2.91326,
5717.000,2.92974,
5716.000,2.94613,
5715.000,2.96239,
5714.000,2.9779,
5713.000,2.99292,
5712.000,3.00878,
5711.000,3.02626,
5710.000,3.04474,
5709.000,3.06356,
5708.000,3.08308,
5707.000,3.10386,
5706.000,3.12543,
5705.000,3.14694,
5704.000,3.16816,
5703.000,3.18922,
5702.000,3.20986,
5701.000,3.22977,
5700.000,3.24911,
5699.000,3.26828,
5698.000,3.28755,
5697.000,3.30746,
5696.000,3.32883,
5695.000,3.35173,
5694.000,3.37498,
5693.000,3.39763,
5692.000,3.41971,
5691.000,3.44199,
5690.000,3.46502,
5689.000,3.4891,
5688.000,3.51467,
5687.000,3.54134,
5686.000,3.56742,
5685.000,3.59109,
5684.000,3.61201,
5683.000,3.63137,
5682.000,3.6509,
5681.000,3.67213,
5680.000,3.6958,
5679.000,3.72134,
5678.000,3.74729,
5677.000,3.77285,
5676.000,3.79828,
5675.000,3.82377,
5674.000,3.84871,
5673.000,3.87288,
5672.000,3.89735,
5671.000,3.92328,
5670.000,3.95043,
5669.000,3.97769,
5668.000,4.00432,
5667.000,4.03005,
5666.000,4.05445,
5665.000,4.07748,
5664.000,4.10024,
5663.000,4.12454,
5662.000,4.15163,
5661.000,4.18132,
5660.000,4.21204,
5659.000,4.24139,
5658.000,4.26767,
5657.000,4.29146,
5656.000,4.31516,
5655.000,4.3404,
5654.000,4.36682,
5653.000,4.39363,
5652.000,4.42108,
5651.000,4.44951,
5650.000,4.47808,
5649.000,4.50601,
5648.000,4.53417,
5647.000,4.56398,
5646.000,4.5951,
5645.000,4.62555,
5644.000,4.65408,
5643.000,4.68137,
5642.000,4.70881,
5641.000,4.73726,
5640.000,4.7669,
5639.000,4.79772,
5638.000,4.82946,
5637.000,4.86162,
5636.000,4.89354,
5635.000,4.92474,
5634.000,4.95521,
5633.000,4.98536,
5632.000,5.01554,
5631.000,5.04543,
5630.000,5.07444,
5629.000,5.10269,
5628.000,5.13125,
5627.000,5.16136,
5626.000,5.19395,
5625.000,5.22927,
5624.000,5.26641,
5623.000,5.30311,
5622.000,5.3374,
5621.000,5.36938,
5620.000,5.40095,
5619.000,5.43353,
5618.000,5.46734,
5617.000,5.50244,
5616.000,5.53882,
5615.000,5.57532,
5614.000,5.61034,
5613.000,5.64411,
5612.000,5.67868,
5611.000,5.71523,
5610.000,5.75267,
5609.000,5.78981,
5608.000,5.82705,
5607.000,5.86495,
5606.000,5.9028,
5605.000,5.93977,
5604.000,5.97633,
5603.000,6.01313,
5602.000,6.04979,
5601.000,6.08624,
5600.000,6.12402,
5599.000,6.16477,
5598.000,6.20789,
5597.000,6.25115,
5596.000,6.29291,
5595.000,6.3327,
5594.000,6.37061,
5593.000,6.4075,
5592.000,6.44535,
5591.000,6.48587,
5590.000,6.52873,
5589.000,6.57207,
5588.000,6.61452,
5587.000,6.65598,
5586.000,6.69702,
5585.000,6.73842,
5584.000,6.78112,
5583.000,6.82551,
5582.000,6.87081,
5581.000,6.91589,
5580.000,6.96039,
5579.000,7.00473,
5578.000,7.04936,
5577.000,7.09455,
5576.000,7.14064,
5575.000,7.18769,
5574.000,7.23512,
5573.000,7.28207,
5572.000,7.32787,
5571.000,7.3721,
5570.000,7.41483,
5569.000,7.45713,
5568.000,7.50084,
5567.000,7.54724,
5566.000,7.59624,
5565.000,7.6469,
5564.000,7.69811,
5563.000,7.74882,
5562.000,7.79836,
5561.000,7.84701,
5560.000,7.89574,
5559.000,7.94508,
5558.000,7.9946,
5557.000,8.04362,
5556.000,8.0918,
5555.000,8.13914,
5554.000,8.18601,
5553.000,8.23303,
5552.000,8.2803,
5551.000,8.32694,
5550.000,8.3722,
5549.000,8.41659,
5548.000,8.46088,
5547.000,8.50462,
5546.000,8.54695,
5545.000,8.58834,
5544.000,8.63018,
5543.000,8.67261,
5542.000,8.71454,
5541.000,8.75547,
5540.000,8.79575,
5539.000,8.83502,
5538.000,8.87244,
5537.000,8.90837,
5536.000,8.94425,
5535.000,8.98022,
5534.000,9.01483,
5533.000,9.047,
5532.000,9.07691,
5531.000,9.10448,
5530.000,9.12924,
5529.000,9.15201,
5528.000,9.17475,
5527.000,9.19802,
5526.000,9.21988,
5525.000,9.23838,
5524.000,9.25348,
5523.000,9.2662,
5522.000,9.27745,
5521.000,9.28817,
5520.000,9.2991,
5519.000,9.30947,
5518.000,9.31722,
5517.000,9.32084,
5516.000,9.3203,
5515.000,9.31609,
5514.000,9.30885,
5513.000,9.30017,
5512.000,9.29158,
5511.000,9.28235,
5510.000,9.26999,
5509.000,9.25322,
5508.000,9.2331,
5507.000,9.21081,
5506.000,9.18632,
5505.000,9.16001,
5504.000,9.13318,
5503.000,9.10598,
5502.000,9.0766,
5501.000,9.04343,
5500.000,9.00664,
5499.000,8.96723,
5498.000,8.92564,
5497.000,8.88228,
5496.000,8.83806,
5495.000,8.79346,
5494.000,8.74809,
5493.000,8.70164,
5492.000,8.65419,
5491.000,8.6054,
5490.000,8.55474,
5489.000,8.50251,
5488.000,8.44947,
5487.000,8.39541,
5486.000,8.33935,
5485.000,8.28141,
5484.000,8.22279,
5483.000,8.16355,
5482.000,8.10225,
5481.000,8.03824,
5480.000,7.9729,
5479.000,7.90786,
5478.000,7.84366,
5477.000,7.78056,
5476.000,7.71912,
5475.000,7.65907,
5474.000,7.59888,
5473.000,7.53749,
5472.000,7.47494,
5471.000,7.41109,
5470.000,7.3455,
5469.000,7.2794,
5468.000,7.2159,
5467.000,7.1568,
5466.000,7.10045,
5465.000,7.04377,
5464.000,6.98487,
5463.000,6.92326,
5462.000,6.85929,
5461.000,6.79434,
5460.000,6.73012,
5459.000,6.66701,
5458.000,6.60372,
5457.000,6.53919,
5456.000,6.47403,
5455.000,6.40981,
5454.000,6.34785,
5453.000,6.28884,
5452.000,6.2324,
5451.000,6.17694,
5450.000,6.12063,
5449.000,6.06301,
5448.000,6.00489,
5447.000,5.94676,
5446.000,5.88817,
5445.000,5.82886,
5444.000,5.76946,
5443.000,5.71098,
5442.000,5.65427,
5441.000,5.6001,
5440.000,5.54878,
5439.000,5.49931,
5438.000,5.44955,
5437.000,5.39784,
5436.000,5.34436,
5435.000,5.29052,
5434.000,5.23753,
5433.000,5.18598,
5432.000,5.13617,
5431.000,5.08804,
5430.000,5.04108,
5429.000,4.99451,
5428.000,4.94817,
5427.000,4.90288,
5426.000,4.85945,
5425.000,4.81714,
5424.000,4.77423,
5423.000,4.73013,
5422.000,4.68633,
5421.000,4.64431,
5420.000,4.60327,
5419.000,4.56125,
5418.000,4.51777,
5417.000,4.47425,
5416.000,4.43236,
5415.000,4.39315,
5414.000,4.35701,
5413.000,4.32335,
5412.000,4.28994,
5411.000,4.2541,
5410.000,4.21553,
5409.000,4.17669,
5408.000,4.13979,
5407.000,4.10468,
5406.000,4.06994,
5405.000,4.03485,
5404.000,3.99948,
5403.000,3.96416,
5402.000,3.92997,
5401.000,3.89858,
5400.000,3.87039,
5399.000,3.84357,
5398.000,3.81592,
5397.000,3.78677,
5396.000,3.75658,
5395.000,3.72554,
5394.000,3.69392,
5393.000,3.66271,
5392.000,3.63254,
5391.000,3.60274,
5390.000,3.57243,
5389.000,3.54193,
5388.000,3.51232,
5387.000,3.48396,
5386.000,3.45645,
5385.000,3.42943,
5384.000,3.4029,
5383.000,3.37668,
5382.000,3.35085,
5381.000,3.32628,
5380.000,3.30339,
5379.000,3.28122,
5378.000,3.25886,
5377.000,3.23699,
5376.000,3.21678,
5375.000,3.19788,
5374.000,3.17869,
5373.000,3.1584,
5372.000,3.13692,
5371.000,3.11355,
5370.000,3.08776,
5369.000,3.06115,
5368.000,3.03629,
5367.000,3.01398,
5366.000,2.9931,
5365.000,2.97292,
5364.000,2.95371,
5363.000,2.93512,
5362.000,2.916,
5361.000,2.89634,
5360.000,2.87751,
5359.000,2.85984,
5358.000,2.84164,
5357.000,2.82152,
5356.000,2.80018,
5355.000,2.77908,
5354.000,2.75864,
5353.000,2.73877,
5352.000,2.72007,
5351.000,2.703,
5350.000,2.68667,
5349.000,2.66961,
5348.000,2.65157,
5347.000,2.6337,
5346.000,2.61683,
5345.000,2.60048,
5344.000,2.58354,
5343.000,2.56551,
5342.000,2.54686,
5341.000,2.52884,
5340.000,2.51242,
5339.000,2.49725,
5338.000,2.48198,
5337.000,2.46593,
5336.000,2.4499,
5335.000,2.4351,
5334.000,2.42176,
5333.000,2.4092,
5332.000,2.39673,
5331.000,2.3838,
5330.000,2.36957,
5329.000,2.35333,
5328.000,2.33536,
5327.000,2.31686,
5326.000,2.299,
5325.000,2.28254,
5324.000,2.26792,
5323.000,2.25484,
5322.000,2.24192,
5321.000,2.2275,
5320.000,2.21147,
5319.000,2.19556,
5318.000,2.18167,
5317.000,2.17031,
5316.000,2.16068,
5315.000,2.15146,
5314.000,2.14148,
5313.000,2.12992,
5312.000,2.11672,
5311.000,2.10255,
5310.000,2.08843,
5309.000,2.07509,
5308.000,2.06236,
5307.000,2.0494,
5306.000,2.03578,
5305.000,2.02223,
5304.000,2.00992,
5303.000,1.99872,
5302.000,1.98718,
5301.000,1.97424,
5300.000,1.96048,
5299.000,1.9471,
5298.000,1.93454,
5297.000,1.92273,
5296.000,1.912,
5295.000,1.90239,
5294.000,1.89267,
5293.000,1.88104,
5292.000,1.86717,
5291.000,1.85256,
5290.000,1.83888,
5289.000,1.82669,
5288.000,1.81613,
5287.000,1.80749,
5286.000,1.80036,
5285.000,1.79308,
5284.000,1.78416,
5283.000,1.77382,
5282.000,1.76357,
5281.000,1.75414,
5280.000,1.7449,
5279.000,1.73505,
5278.000,1.72495,
5277.000,1.71555,
5276.000,1.70704,
5275.000,1.69863,
5274.000,1.68958,
5273.000,1.68003,
5272.000,1.67062,
5271.000,1.66195,
5270.000,1.65472,
5269.000,1.64959,
5268.000,1.64634,
5267.000,1.64336,
5266.000,1.63876,
5265.000,1.63212,
5264.000,1.6245,
5263.000,1.61658,
5262.000,1.60778,
5261.000,1.59761,
5260.000,1.58714,
5259.000,1.57822,
5258.000,1.57175,
5257.000,1.5673,
5256.000,1.56422,
5255.000,1.5619,
5254.000,1.55956,
5253.000,1.55655,
5252.000,1.55315,
5251.000,1.55034,
5250.000,1.54849,
5249.000,1.54689,
5248.000,1.54489,
5247.000,1.54283,
5246.000,1.54137,
5245.000,1.54052,
5244.000,1.53962,
5243.000,1.538,
5242.000,1.53539,
5241.000,1.53185,
5240.000,1.52776,
5239.000,1.52374,
5238.000,1.52027,
5237.000,1.51748,
5236.000,1.51549,
5235.000,1.51462,
5234.000,1.51511,
5233.000,1.51665,
5232.000,1.51847,
5231.000,1.51985,
5230.000,1.52051,
5229.000,1.52072,
5228.000,1.52129,
5227.000,1.52318,
5226.000,1.52675,
5225.000,1.53116,
5224.000,1.53494,
5223.000,1.53722,
5222.000,1.53828,
5221.000,1.53906,
5220.000,1.54058,
5219.000,1.54364,
5218.000,1.54842,
5217.000,1.55394,
5216.000,1.55843,
5215.000,1.561,
5214.000,1.56249,
5213.000,1.56452,
5212.000,1.56815,
5211.000,1.57359,
5210.000,1.58059,
5209.000,1.58862,
5208.000,1.59682,
5207.000,1.60435,
5206.000,1.61088,
5205.000,1.61658,
5204.000,1.62185,
5203.000,1.62704,
5202.000,1.63248,
5201.000,1.63856,
5200.000,1.64577,
5199.000,1.65444,
5198.000,1.66438,
5197.000,1.67489,
5196.000,1.68513,
5195.000,1.69467,
5194.000,1.70365,
5193.000,1.71224,
5192.000,1.72037,
5191.000,1.72827,
5190.000,1.73707,
5189.000,1.74813,
5188.000,1.76165,
5187.000,1.77623,
5186.000,1.78995,
5185.000,1.80166,
5184.000,1.81124,
5183.000,1.8194,
5182.000,1.82754,
5181.000,1.83737,
5180.000,1.85022,
5179.000,1.86599,
5178.000,1.88312,
5177.000,1.89968,
5176.000,1.91457,
5175.000,1.92785,
5174.000,1.94023,
5173.000,1.95241,
5172.000,1.96507,
5171.000,1.97896,
5170.000,1.99446,
5169.000,2.01102,
5168.000,2.02734,
5167.000,2.04269,
5166.000,2.05748,
5165.000,2.07244,
5164.000,2.08765,
5163.000,2.10287,
5162.000,2.1184,
5161.000,2.13487,
5160.000,2.15218,
5159.000,2.16947,
5158.000,2.18641,
5157.000,2.2037,
5156.000,2.22195,
5155.000,2.24079,
5154.000,2.2595,
5153.000,2.27799,
5152.000,2.29655,
5151.000,2.31516,
5150.000,2.33348,
5149.000,2.35126,
5148.000,2.3684,
5147.000,2.38482,
5146.000,2.40089,
5145.000,2.41752,
5144.000,2.43543,
5143.000,2.45451,
5142.000,2.4743,
5141.000,2.49467,
5140.000,2.51575,
5139.000,2.53725,
5138.000,2.55852,
5137.000,2.57916,
5136.000,2.59924,
5135.000,2.61914,
5134.000,2.6395,
5133.000,2.66106,
5132.000,2.68392,
5131.000,2.70716,
5130.000,2.72962,
5129.000,2.75104,
5128.000,2.77194,
5127.000,2.79272,
5126.000,2.81328,
5125.000,2.83344,
5124.000,2.85319,
5123.000,2.8727,
5122.000,2.89254,
5121.000,2.91368,
5120.000,2.93667,
5119.000,2.96099,
5118.000,2.98554,
5117.000,3.00981,
5116.000,3.03389,
5115.000,3.05774,
5114.000,3.08106,
5113.000,3.10384,
5112.000,3.12649,
5111.000,3.14924,
5110.000,3.17191,
5109.000,3.19452,
5108.000,3.21751,
5107.000,3.2413,
5106.000,3.26599,
5105.000,3.29166,
5104.000,3.3184,
5103.000,3.34597,
5102.000,3.37357,
5101.000,3.4002,
5100.000,3.42512,
5099.000,3.44827,
5098.000,3.47043,
5097.000,3.49301,
5096.000,3.51705,
5095.000,3.54249,
5094.000,3.56848,
5093.000,3.59422,
5092.000,3.61947,
5091.000,3.64454,
5090.000,3.67004,
5089.000,3.6964,
5088.000,3.72328,
5087.000,3.74996,
5086.000,3.77654,
5085.000,3.8041,
5084.000,3.83323,
5083.000,3.86298,
5082.000,3.89186,
5081.000,3.91949,
5080.000,3.94644,
5079.000,3.97312,
5078.000,3.99981,
5077.000,4.02716,
5076.000,4.05562,
5075.000,4.08467,
5074.000,4.11358,
5073.000,4.1427,
5072.000,4.17288,
5071.000,4.20373,
5070.000,4.23381,
5069.000,4.26252,
5068.000,4.29074,
5067.000,4.31938,
5066.000,4.34853,
5065.000,4.37813,
5064.000,4.40853,
5063.000,4.43995,
5062.000,4.4722,
5061.000,4.50514,
5060.000,4.53864,
5059.000,4.57192,
5058.000,4.60381,
5057.000,4.63405,
5056.000,4.66378,
5055.000,4.69439,
5054.000,4.7266,
5053.000,4.76055,
5052.000,4.79589,
5051.000,4.83158,
5050.000,4.86656,
5049.000,4.90075,
5048.000,4.935,
5047.000,4.96979,
5046.000,5.00471,
5045.000,5.03935,
5044.000,5.07403,
5043.000,5.10933,
5042.000,5.14544,
5041.000,5.18218,
5040.000,5.21904,
5039.000,5.25528,
5038.000,5.2906,
5037.000,5.32586,
5036.000,5.36247,
5035.000,5.40112,
5034.000,5.44162,
5033.000,5.48359,
5032.000,5.52638,
5031.000,5.56866,
5030.000,5.60915,
5029.000,5.64786,
5028.000,5.6858,
5027.000,5.72377,
5026.000,5.76222,
5025.000,5.80214,
5024.000,5.84453,
5023.000,5.8889,
5022.000,5.93352,
5021.000,5.97736,
5020.000,6.02076,
5019.000,6.06397,
5018.000,6.10658,
5017.000,6.14871,
5016.000,6.19153,
5015.000,6.23601,
5014.000,6.28194,
5013.000,6.32857,
5012.000,6.37544,
5011.000,6.42199,
5010.000,6.46754,
5009.000,6.51204,
5008.000,6.55625,
5007.000,6.6006,
5006.000,6.64465,
5005.000,6.68795,
5004.000,6.73069,
5003.000,6.77339,
5002.000,6.81663,
5001.000,6.86112,
5000.000,6.90701,
4999.000,6.95312,
4998.000,6.99755,
4997.000,7.03981,
4996.000,7.08117,
4995.000,7.12261,
4994.000,7.16444,
4993.000,7.20645,
4992.000,7.24827,
4991.000,7.28889,
4990.000,7.32737,
4989.000,7.36435,
4988.000,7.40161,
4987.000,7.43976,
4986.000,7.47756,
4985.000,7.51355,
4984.000,7.54737,
4983.000,7.579,
4982.000,7.60816,
4981.000,7.63507,
4980.000,7.66064,
4979.000,7.68525,
4978.000,7.70835,
4977.000,7.72966,
4976.000,7.74975,
4975.000,7.76881,
4974.000,7.78596,
4973.000,7.80019,
4972.000,7.81136,
4971.000,7.81942,
4970.000,7.82398,
4969.000,7.82513,
4968.000,7.82398,
4967.000,7.82167,
4966.000,7.81842,
4965.000,7.81386,
4964.000,7.80758,
4963.000,7.79878,
4962.000,7.78618,
4961.000,7.76914,
4960.000,7.74833,
4959.000,7.7251,
4958.000,7.70045,
4957.000,7.67486,
4956.000,7.64831,
4955.000,7.62023,
4954.000,7.58958,
4953.000,7.55557,
4952.000,7.51821,
4951.000,7.4781,
4950.000,7.43625,
4949.000,7.39377,
4948.000,7.35126,
4947.000,7.3083,
4946.000,7.26385,
4945.000,7.21712,
4944.000,7.16777,
4943.000,7.11578,
4942.000,7.06175,
4941.000,7.00692,
4940.000,6.95239,
4939.000,6.89812,
4938.000,6.84337,
4937.000,6.78774,
4936.000,6.73125,
4935.000,6.67402,
4934.000,6.61634,
4933.000,6.55879,
4932.000,6.5014,
4931.000,6.44308,
4930.000,6.3828,
4929.000,6.32105,
4928.000,6.25929,
4927.000,6.19826,
4926.000,6.1377,
4925.000,6.07728,
4924.000,6.01701,
4923.000,5.95673,
4922.000,5.89625,
4921.000,5.83582,
4920.000,5.77576,
4919.000,5.71556,
4918.000,5.6544,
4917.000,5.59234,
4916.000,5.53042,
4915.000,5.4697,
4914.000,5.41084,
4913.000,5.35431,
4912.000,5.30004,
4911.000,5.24672,
4910.000,5.19252,
4909.000,5.13653,
4908.000,5.07914,
4907.000,5.02105,
4906.000,4.96278,
4905.000,4.90498,
4904.000,4.84831,
4903.000,4.79315,
4902.000,4.73981,
4901.000,4.68892,
4900.000,4.64071,
4899.000,4.59404,
4898.000,4.547,
4897.000,4.49843,
4896.000,4.44846,
4895.000,4.39781,
4894.000,4.34745,
4893.000,4.29863,
4892.000,4.25227,
4891.000,4.20799,
4890.000,4.16451,
4889.000,4.12109,
4888.000,4.07797,
4887.000,4.03567,
4886.000,3.9944,
4885.000,3.95418,
4884.000,3.91473,
4883.000,3.8752,
4882.000,3.83482,
4881.000,3.79403,
4880.000,3.75423,
4879.000,3.71639,
4878.000,3.68036,
4877.000,3.64551,
4876.000,3.6113,
4875.000,3.57714,
4874.000,3.54248,
4873.000,3.50736,
4872.000,3.47227,
4871.000,3.43746,
4870.000,3.40295,
4869.000,3.36917,
4868.000,3.33681,
4867.000,3.30601,
4866.000,3.27603,
4865.000,3.24615,
4864.000,3.21616,
4863.000,3.18597,
4862.000,3.15542,
4861.000,3.12464,
4860.000,3.09427,
4859.000,3.0649,
4858.000,3.03675,
4857.000,3.00986,
4856.000,2.98411,
4855.000,2.95906,
4854.000,2.93424,
4853.000,2.9096,
4852.000,2.88533,
4851.000,2.86108,
4850.000,2.8361,
4849.000,2.81011,
4848.000,2.78369,
4847.000,2.75779,
4846.000,2.73311,
4845.000,2.71012,
4844.000,2.68878,
4843.000,2.66833,
4842.000,2.64762,
4841.000,2.62598,
4840.000,2.60369,
4839.000,2.5815,
4838.000,2.56006,
4837.000,2.53967,
4836.000,2.52005,
4835.000,2.50034,
4834.000,2.47994,
4833.000,2.45925,
4832.000,2.43936,
4831.000,2.4208,
4830.000,2.40308,
4829.000,2.38523,
4828.000,2.36657,
4827.000,2.34681,
4826.000,2.32619,
4825.000,2.30562,
4824.000,2.28599,
4823.000,2.26745,
4822.000,2.24943,
4821.000,2.23154,
4820.000,2.21378,
4819.000,2.19604,
4818.000,2.17817,
4817.000,2.16051,
4816.000,2.14376,
4815.000,2.12792,
4814.000,2.1121,
4813.000,2.09564,
4812.000,2.07879,
4811.000,2.06218,
4810.000,2.04598,
4809.000,2.02997,
4808.000,2.01384,
4807.000,1.99717,
4806.000,1.97976,
4805.000,1.96237,
4804.000,1.94656,
4803.000,1.93321,
4802.000,1.92127,
4801.000,1.90848,
4800.000,1.89322,
4799.000,1.87551,
4798.000,1.85675,
4797.000,1.83868,
4796.000,1.82259,
4795.000,1.80865,
4794.000,1.79605,
4793.000,1.78381,
4792.000,1.77146,
4791.000,1.75896,
4790.000,1.7462,
4789.000,1.73289,
4788.000,1.71882,
4787.000,1.70403,
4786.000,1.68885,
4785.000,1.6739,
4784.000,1.65993,
4783.000,1.64736,
4782.000,1.63592,
4781.000,1.62478,
4780.000,1.61299,
4779.000,1.59998,
4778.000,1.58603,
4777.000,1.57201,
4776.000,1.5587,
4775.000,1.546,
4774.000,1.53318,
4773.000,1.51983,
4772.000,1.5063,
4771.000,1.49336,
4770.000,1.48162,
4769.000,1.47128,
4768.000,1.46201,
4767.000,1.45286,
4766.000,1.44284,
4765.000,1.43166,
4764.000,1.41981,
4763.000,1.4078,
4762.000,1.39576,
4761.000,1.38368,
4760.000,1.37162,
4759.000,1.35966,
4758.000,1.34787,
4757.000,1.33659,
4756.000,1.32621,
4755.000,1.3165,
4754.000,1.30647,
4753.000,1.29537,
4752.000,1.28339,
4751.000,1.27135,
4750.000,1.25989,
4749.000,1.24931,
4748.000,1.23983,
4747.000,1.2314,
4746.000,1.22366,
4745.000,1.21607,
4744.000,1.2081,
4743.000,1.1993,
4742.000,1.18951,
4741.000,1.17923,
4740.000,1.16964,
4739.000,1.16172,
4738.000,1.15542,
4737.000,1.14962,
4736.000,1.14312,
4735.000,1.13534,
4734.000,1.12658,
4733.000,1.11769,
4732.000,1.1094,
4731.000,1.10174,
4730.000,1.09401,
4729.000,1.08568,
4728.000,1.077,
4727.000,1.06867,
4726.000,1.06106,
4725.000,1.05389,
4724.000,1.04666,
4723.000,1.0392,
4722.000,1.0319,
4721.000,1.02549,
4720.000,1.02038,
4719.000,1.01619,
4718.000,1.0119,
4717.000,1.00682,
4716.000,1.00121,
4715.000,0.995844,
4714.000,0.991173,
4713.000,0.987089,
4712.000,0.983298,
4711.000,0.979655,
4710.000,0.97613,
4709.000,0.972625,
4708.000,0.968865,
4707.000,0.964522,
4706.000,0.959617,
4705.000,0.954857,
4704.000,0.951348,
4703.000,0.949686,
4702.000,0.949313,
4701.000,0.948879,
4700.000,0.947229,
4699.000,0.944151,
4698.000,0.9404,
4697.000,0.937091,
4696.000,0.934926,
4695.000,0.933717,
4694.000,0.93266,
4693.000,0.931159,
4692.000,0.929324,
4691.000,0.927713,
4690.000,0.926755,
4689.000,0.926386,
4688.000,0.926057,
4687.000,0.92505,
4686.000,0.923079,
4685.000,0.92075,
4684.000,0.919179,
4683.000,0.919091,
4682.000,0.920396,
4681.000,0.922552,
4680.000,0.924949,
4679.000,0.926843,
4678.000,0.927441,
4677.000,0.926517,
4676.000,0.924834,
4675.000,0.923684,
4674.000,0.924051,
4673.000,0.926216,
4672.000,0.929822,
4671.000,0.934051,
4670.000,0.938033,
4669.000,0.941396,
4668.000,0.944336,
4667.000,0.947039,
4666.000,0.94934,
4665.000,0.951127,
4664.000,0.952737,
4663.000,0.954555,
4662.000,0.956513,
4661.000,0.958433,
4660.000,0.960708,
4659.000,0.964178,
4658.000,0.969333,
4657.000,0.975929,
4656.000,0.983338,
4655.000,0.990906,
4654.000,0.997984,
4653.000,1.00405,
4652.000,1.00905,
4651.000,1.0134,
4650.000,1.01775,
4649.000,1.02268,
4648.000,1.02856,
4647.000,1.03545,
4646.000,1.04299,
4645.000,1.05065,
4644.000,1.05809,
4643.000,1.0652,
4642.000,1.07177,
4641.000,1.07763,
4640.000,1.08287,
4639.000,1.08799,
4638.000,1.09359,
4637.000,1.10006,
4636.000,1.10766,
4635.000,1.11656,
4634.000,1.12664,
4633.000,1.13729,
4632.000,1.14752,
4631.000,1.15654,
4630.000,1.16426,
4629.000,1.17148,
4628.000,1.17934,
4627.000,1.18844,
4626.000,1.19856,
4625.000,1.20915,
4624.000,1.2201,
4623.000,1.23167,
4622.000,1.24394,
4621.000,1.2566,
4620.000,1.2692,
4619.000,1.28154,
4618.000,1.29357,
4617.000,1.30521,
4616.000,1.3163,
4615.000,1.32692,
4614.000,1.33757,
4613.000,1.34895,
4612.000,1.36137,
4611.000,1.37445,
4610.000,1.38748,
4609.000,1.40008,
4608.000,1.41256,
4607.000,1.42554,
4606.000,1.43952,
4605.000,1.45461,
4604.000,1.47064,
4603.000,1.48725,
4602.000,1.50389,
4601.000,1.51997,
4600.000,1.5352,
4599.000,1.54976,
4598.000,1.56417,
4597.000,1.57882,
4596.000,1.59376,
4595.000,1.60883,
4594.000,1.62418,
4593.000,1.64036,
4592.000,1.65775,
4591.000,1.67601,
4590.000,1.69418,
4589.000,1.71152,
4588.000,1.72805,
4587.000,1.74434,
4586.000,1.76099,
4585.000,1.7782,
4584.000,1.79579,
4583.000,1.81346,
4582.000,1.83127,
4581.000,1.8496,
4580.000,1.86856,
4579.000,1.88764,
4578.000,1.90614,
4577.000,1.92391,
4576.000,1.9416,
4575.000,1.96002,
4574.000,1.97957,
4573.000,2.00022,
4572.000,2.02162,
4571.000,2.04322,
4570.000,2.0644,
4569.000,2.08483,
4568.000,2.10464,
4567.000,2.12417,
4566.000,2.1438,
4565.000,2.16394,
4564.000,2.18478,
4563.000,2.20611,
4562.000,2.22754,
4561.000,2.24899,
4560.000,2.27061,
4559.000,2.29243,
4558.000,2.31421,
4557.000,2.3358,
4556.000,2.35734,
4555.000,2.37886,
4554.000,2.40009,
4553.000,2.42088,
4552.000,2.44152,
4551.000,2.46265,
4550.000,2.48468,
4549.000,2.50745,
4548.000,2.53028,
4547.000,2.55259,
4546.000,2.57446,
4545.000,2.59673,
4544.000,2.62019,
4543.000,2.64472,
4542.000,2.66939,
4541.000,2.6933,
4540.000,2.7162,
4539.000,2.73848,
4538.000,2.76075,
4537.000,2.78363,
4536.000,2.80749,
4535.000,2.83223,
4534.000,2.85733,
4533.000,2.88217,
4532.000,2.90635,
4531.000,2.92981,
4530.000,2.95303,
4529.000,2.97682,
4528.000,3.00167,
4527.000,3.02729,
4526.000,3.05304,
4525.000,3.07877,
4524.000,3.1049,
4523.000,3.13172,
4522.000,3.15903,
4521.000,3.18641,
4520.000,3.21367,
4519.000,3.24082,
4518.000,3.26789,
4517.000,3.29487,
4516.000,3.32154,
4515.000,3.34756,
4514.000,3.37295,
4513.000,3.39833,
4512.000,3.42459,
4511.000,3.45212,
4510.000,3.4806,
4509.000,3.50942,
4508.000,3.53807,
4507.000,3.56628,
4506.000,3.59418,
4505.000,3.62228,
4504.000,3.65102,
4503.000,3.68023,
4502.000,3.70951,
4501.000,3.73878,
4500.000,3.76842,
4499.000,3.79874,
4498.000,3.82973,
4497.000,3.86128,
4496.000,3.89333,
4495.000,3.92576,
4494.000,3.95826,
4493.000,3.9905,
4492.000,4.02211,
4491.000,4.05286,
4490.000,4.08304,
4489.000,4.11363,
4488.000,4.14551,
4487.000,4.17867,
4486.000,4.21248,
4485.000,4.24658,
4484.000,4.2812,
4483.000,4.31657,
4482.000,4.3525,
4481.000,4.38858,
4480.000,4.4244,
4479.000,4.45966,
4478.000,4.49455,
4477.000,4.52979,
4476.000,4.56606,
4475.000,4.60325,
4474.000,4.64064,
4473.000,4.67775,
4472.000,4.71464,
4471.000,4.75153,
4470.000,4.78865,
4469.000,4.82627,
4468.000,4.86458,
4467.000,4.90342,
4466.000,4.94248,
4465.000,4.98174,
4464.000,5.0213,
4463.000,5.06099,
4462.000,5.10048,
4461.000,5.13986,
4460.000,5.17972,
4459.000,5.2205,
4458.000,5.26209,
4457.000,5.30399,
4456.000,5.34562,
4455.000,5.38653,
4454.000,5.42687,
4453.000,5.46738,
4452.000,5.50857,
4451.000,5.54998,
4450.000,5.59055,
4449.000,5.62973,
4448.000,5.66771,
4447.000,5.70499,
4446.000,5.74213,
4445.000,5.77977,
4444.000,5.81832,
4443.000,5.85735,
4442.000,5.89581,
4441.000,5.93271,
4440.000,5.96755,
4439.000,6.00022,
4438.000,6.031,
4437.000,6.0605,
4436.000,6.0891,
4435.000,6.11659,
4434.000,6.14258,
4433.000,6.16711,
4432.000,6.1904,
4431.000,6.21223,
4430.000,6.23194,
4429.000,6.24912,
4428.000,6.26374,
4427.000,6.27581,
4426.000,6.2853,
4425.000,6.29233,
4424.000,6.29706,
4423.000,6.29945,
4422.000,6.29938,
4421.000,6.29693,
4420.000,6.29207,
4419.000,6.28443,
4418.000,6.27375,
4417.000,6.26028,
4416.000,6.24447,
4415.000,6.2263,
4414.000,6.20538,
4413.000,6.1816,
4412.000,6.15508,
4411.000,6.12579,
4410.000,6.09375,
4409.000,6.0593,
4408.000,6.02291,
4407.000,5.98486,
4406.000,5.94523,
4405.000,5.90426,
4404.000,5.86207,
4403.000,5.81842,
4402.000,5.77299,
4401.000,5.72577,
4400.000,5.67691,
4399.000,5.6265,
4398.000,5.57492,
4397.000,5.52298,
4396.000,5.47109,
4395.000,5.41854,
4394.000,5.36424,
4393.000,5.30802,
4392.000,5.25096,
4391.000,5.19429,
4390.000,5.13842,
4389.000,5.08286,
4388.000,5.02676,
4387.000,4.96964,
4386.000,4.91193,
4385.000,4.85465,
4384.000,4.79834,
4383.000,4.74244,
4382.000,4.68617,
4381.000,4.62939,
4380.000,4.57252,
4379.000,4.5159,
4378.000,4.45987,
4377.000,4.40515,
4376.000,4.35229,
4375.000,4.30086,
4374.000,4.24967,
4373.000,4.19795,
4372.000,4.14608,
4371.000,4.0951,
4370.000,4.04589,
4369.000,3.99875,
4368.000,3.95329,
4367.000,3.90868,
4366.000,3.86426,
4365.000,3.81992,
4364.000,3.77579,
4363.000,3.73188,
4362.000,3.68843,
4361.000,3.6462,
4360.000,3.60583,
4359.000,3.56689,
4358.000,3.52813,
4357.000,3.48868,
4356.000,3.44877,
4355.000,3.4092,
4354.000,3.37045,
4353.000,3.33243,
4352.000,3.2948,
4351.000,3.25747,
4350.000,3.22086,
4349.000,3.18551,
4348.000,3.15131,
4347.000,3.11728,
4346.000,3.08248,
4345.000,3.04703,
4344.000,3.01185,
4343.000,2.97761,
4342.000,2.94426,
4341.000,2.91158,
4340.000,2.87958,
4339.000,2.84838,
4338.000,2.81789,
4337.000,2.78802,
4336.000,2.75873,
4335.000,2.73001,
4334.000,2.70183,
4333.000,2.67421,
4332.000,2.64718,
4331.000,2.6205,
4330.000,2.59373,
4329.000,2.56659,
4328.000,2.53916,
4327.000,2.5118,
4326.000,2.48487,
4325.000,2.45854,
4324.000,2.43244,
4323.000,2.40591,
4322.000,2.37864,
4321.000,2.35141,
4320.000,2.32554,
4319.000,2.30168,
4318.000,2.27924,
4317.000,2.25697,
4316.000,2.23396,
4315.000,2.21014,
4314.000,2.18624,
4313.000,2.16345,
4312.000,2.14269,
4311.000,2.12393,
4310.000,2.10608,
4309.000,2.08773,
4308.000,2.06804,
4307.000,2.04709,
4306.000,2.02564,
4305.000,2.0046,
4304.000,1.98437,
4303.000,1.96466,
4302.000,1.9449,
4301.000,1.92491,
4300.000,1.90513,
4299.000,1.88621,
4298.000,1.86851,
4297.000,1.85189,
4296.000,1.83568,
4295.000,1.819,
4294.000,1.80134,
4293.000,1.78297,
4292.000,1.76465,
4291.000,1.74682,
4290.000,1.72924,
4289.000,1.71154,
4288.000,1.69383,
4287.000,1.67668,
4286.000,1.66047,
4285.000,1.64512,
4284.000,1.63018,
4283.000,1.61522,
4282.000,1.60016,
4281.000,1.58517,
4280.000,1.57044,
4279.000,1.55585,
4278.000,1.54117,
4277.000,1.52635,
4276.000,1.51157,
4275.000,1.49716,
4274.000,1.4834,
4273.000,1.47056,
4272.000,1.45871,
4271.000,1.4474,
4270.000,1.43582,
4269.000,1.4234,
4268.000,1.41019,
4267.000,1.39669,
4266.000,1.38334,
4265.000,1.37037,
4264.000,1.35789,
4263.000,1.34592,
4262.000,1.33426,
4261.000,1.3226,
4260.000,1.31061,
4259.000,1.29824,
4258.000,1.28577,
4257.000,1.27374,
4256.000,1.26253,
4255.000,1.25205,
4254.000,1.24188,
4253.000,1.23165,
4252.000,1.22117,
4251.000,1.21017,
4250.000,1.19823,
4249.000,1.18516,
4248.000,1.17142,
4247.000,1.15801,
4246.000,1.14587,
4245.000,1.13514,
4244.000,1.12503,
4243.000,1.11447,
4242.000,1.10292,
4241.000,1.09075,
4240.000,1.0787,
4239.000,1.06713,
4238.000,1.0559,
4237.000,1.04488,
4236.000,1.03423,
4235.000,1.0241,
4234.000,1.01425,
4233.000,1.00423,
4232.000,0.993805,
4231.000,0.983121,
4230.000,0.972444,
4229.000,0.961951,
4228.000,0.951685,
4227.000,0.941583,
4226.000,0.93147,
4225.000,0.921119,
4224.000,0.910434,
4223.000,0.899658,
4222.000,0.889317,
4221.000,0.879834,
4220.000,0.871116,
4219.000,0.862621,
4218.000,0.853939,
4217.000,0.845245,
4216.000,0.837015,
4215.000,0.829339,
4214.000,0.821753,
4213.000,0.813811,
4212.000,0.805612,
4211.000,0.7976,
4210.000,0.789958,
4209.000,0.782417,
4208.000,0.774655,
4207.000,0.766729,
4206.000,0.759017,
4205.000,0.751804,
4204.000,0.744967,
4203.000,0.738141,
4202.000,0.731133,
4201.000,0.72413,
4200.000,0.71749,
4199.000,0.711414,
4198.000,0.705816,
4197.000,0.700421,
4196.000,0.694895,
4195.000,0.68898,
4194.000,0.682744,
4193.000,0.676638,
4192.000,0.671097,
4191.000,0.666023,
4190.000,0.660851,
4189.000,0.655226,
4188.000,0.649461,
4187.000,0.644198,
4186.000,0.639707,
4185.000,0.635681,
4184.000,0.631683,
4183.000,0.627635,
4182.000,0.623828,
4181.000,0.620488,
4180.000,0.617439,
4179.000,0.61419,
4178.000,0.610374,
4177.000,0.606088,
4176.000,0.601813,
4175.000,0.598049,
4174.000,0.595062,
4173.000,0.592864,
4172.000,0.591234,
4171.000,0.5897,
4170.000,0.58767,
4169.000,0.584772,
4168.000,0.581159,
4167.000,0.57744,
4166.000,0.574254,
4165.000,0.571795,
4164.000,0.56969,
4163.000,0.567377,
4162.000,0.564713,
4161.000,0.562147,
4160.000,0.560193,
4159.000,0.558767,
4158.000,0.5572,
4157.000,0.554983,
4156.000,0.552354,
4155.000,0.550077,
4154.000,0.5487,
4153.000,0.548088,
4152.000,0.547621,
4151.000,0.546792,
4150.000,0.545635,
4149.000,0.544596,
4148.000,0.543974,
4147.000,0.543526,
4146.000,0.542712,
4145.000,0.541298,
4144.000,0.539624,
4143.000,0.538275,
4142.000,0.537617,
4141.000,0.537669,
4140.000,0.538224,
4139.000,0.538935,
4138.000,0.539359,
4137.000,0.539057,
4136.000,0.537753,
4135.000,0.53548,
4134.000,0.532694,
4133.000,0.530244,
4132.000,0.529007,
4131.000,0.529358,
4130.000,0.530931,
4129.000,0.533049,
4128.000,0.53536,
4127.000,0.537981,
4126.000,0.541038,
4125.000,0.544153,
4124.000,0.546524,
4123.000,0.547487,
4122.000,0.547023,
4121.000,0.545763,
4120.000,0.544597,
4119.000,0.544273,
4118.000,0.545186,
4117.000,0.547256,
4116.000,0.549893,
4115.000,0.552236,
4114.000,0.553711,
4113.000,0.554436,
4112.000,0.555065,
4111.000,0.556226,
4110.000,0.558076,
4109.000,0.560288,
4108.000,0.562343,
4107.000,0.563889,
4106.000,0.565043,
4105.000,0.566335,
4104.000,0.56822,
4103.000,0.57061,
4102.000,0.573072,
4101.000,0.575536,
4100.000,0.57852,
4099.000,0.5825,
4098.000,0.587143,
4097.000,0.59144,
4096.000,0.594618,
4095.000,0.596868,
4094.000,0.599129,
4093.000,0.602232,
4092.000,0.606248,
4091.000,0.610554,
4090.000,0.614494,
4089.000,0.61795,
4088.000,0.621287,
4087.000,0.624785,
4086.000,0.628326,
4085.000,0.631707,
4084.000,0.635167,
4083.000,0.639355,
4082.000,0.644631,
4081.000,0.650552,
4080.000,0.656252,
4079.000,0.661337,
4078.000,0.666261,
4077.000,0.671654,
4076.000,0.677446,
4075.000,0.682874,
4074.000,0.687449,
4073.000,0.691729,
4072.000,0.69687,
4071.000,0.70349,
4070.000,0.711059,
4069.000,0.718454,
4068.000,0.724966,
4067.000,0.730782,
4066.000,0.736673,
4065.000,0.743343,
4064.000,0.750999,
4063.000,0.759385,
4062.000,0.768135,
4061.000,0.777111,
4060.000,0.786412,
4059.000,0.796053,
4058.000,0.805707,
4057.000,0.814815,
4056.000,0.822993,
4055.000,0.830385,
4054.000,0.837641,
4053.000,0.845497,
4052.000,0.85434,
4051.000,0.864069,
4050.000,0.874336,
4049.000,0.884859,
4048.000,0.895527,
4047.000,0.906262,
4046.000,0.916888,
4045.000,0.927172,
4044.000,0.937022,
4043.000,0.946721,
4042.000,0.956954,
4041.000,0.968444,
4040.000,0.98138,
4039.000,0.995109,
4038.000,1.00853,
4037.000,1.02088,
4036.000,1.03229,
4035.000,1.04354,
4034.000,1.05535,
4033.000,1.06799,
4032.000,1.08125,
4031.000,1.0947,
4030.000,1.10802,
4029.000,1.12108,
4028.000,1.13403,
4027.000,1.14717,
4026.000,1.16072,
4025.000,1.17453,
4024.000,1.18819,
4023.000,1.20163,
4022.000,1.21538,
4021.000,1.2302,
4020.000,1.24615,
4019.000,1.26242,
4018.000,1.27818,
4017.000,1.29352,
4016.000,1.30918,
4015.000,1.32547,
4014.000,1.34171,
4013.000,1.35716,
4012.000,1.37196,
4011.000,1.38712,
4010.000,1.40342,
4009.000,1.4207,
4008.000,1.43825,
4007.000,1.45549,
4006.000,1.47221,
4005.000,1.48835,
4004.000,1.5039,
4003.000,1.51909,
4002.000,1.53455,
4001.000,1.55085,
4000.000,1.56814,
3999.000,1.58612,
3998.000,1.60452,
3997.000,1.62329,
3996.000,1.64246,
3995.000,1.66184,
3994.000,1.6811,
3993.000,1.70009,
3992.000,1.71896,
3991.000,1.73777,
3990.000,1.75635,
3989.000,1.77446,
3988.000,1.79218,
3987.000,1.80998,
3986.000,1.82842,
3985.000,1.84768,
3984.000,1.86741,
3983.000,1.88697,
3982.000,1.90588,
3981.000,1.92427,
3980.000,1.94284,
3979.000,1.96222,
3978.000,1.98243,
3977.000,2.0029,
3976.000,2.023,
3975.000,2.04248,
3974.000,2.06141,
3973.000,2.07992,
3972.000,2.09823,
3971.000,2.11661,
3970.000,2.1353,
3969.000,2.15444,
3968.000,2.17424,
3967.000,2.19491,
3966.000,2.2164,
3965.000,2.23822,
3964.000,2.25981,
3963.000,2.28099,
3962.000,2.30194,
3961.000,2.32274,
3960.000,2.34317,
3959.000,2.36305,
3958.000,2.38249,
3957.000,2.40183,
3956.000,2.42137,
3955.000,2.44113,
3954.000,2.46104,
3953.000,2.48132,
3952.000,2.50255,
3951.000,2.52524,
3950.000,2.5492,
3949.000,2.57344,
3948.000,2.59689,
3947.000,2.6193,
3946.000,2.64139,
3945.000,2.66405,
3944.000,2.68765,
3943.000,2.71209,
3942.000,2.7373,
3941.000,2.76344,
3940.000,2.7905,
3939.000,2.81787,
3938.000,2.84477,
3937.000,2.87112,
3936.000,2.89772,
3935.000,2.92546,
3934.000,2.9544,
3933.000,2.98376,
3932.000,3.01283,
3931.000,3.0416,
3930.000,3.07063,
3929.000,3.10034,
3928.000,3.13075,
3927.000,3.16166,
3926.000,3.1928,
3925.000,3.2239,
3924.000,3.25506,
3923.000,3.28689,
3922.000,3.31974,
3921.000,3.35306,
3920.000,3.38602,
3919.000,3.41879,
3918.000,3.45232,
3917.000,3.4871,
3916.000,3.52269,
3915.000,3.55842,
3914.000,3.59387,
3913.000,3.62881,
3912.000,3.66316,
3911.000,3.69733,
3910.000,3.73188,
3909.000,3.76699,
3908.000,3.80242,
3907.000,3.83774,
3906.000,3.87253,
3905.000,3.9065,
3904.000,3.94007,
3903.000,3.97434,
3902.000,4.01029,
3901.000,4.04765,
3900.000,4.08536,
3899.000,4.12301,
3898.000,4.16112,
3897.000,4.19976,
3896.000,4.23755,
3895.000,4.27274,
3894.000,4.3049,
3893.000,4.3352,
3892.000,4.36553,
3891.000,4.39721,
3890.000,4.42952,
3889.000,4.45979,
3888.000,4.48559,
3887.000,4.50714,
3886.000,4.52804,
3885.000,4.55202,
3884.000,4.57855,
3883.000,4.60391,
3882.000,4.62538,
3881.000,4.64355,
3880.000,4.66169,
3879.000,4.68157,
3878.000,4.70045,
3877.000,4.71376,
3876.000,4.71966,
3875.000,4.7208,
3874.000,4.72099,
3873.000,4.72075,
3872.000,4.71847,
3871.000,4.71393,
3870.000,4.7087,
3869.000,4.70419,
3868.000,4.69914,
3867.000,4.6898,
3866.000,4.673,
3865.000,4.64985,
3864.000,4.62608,
3863.000,4.60592,
3862.000,4.58772,
3861.000,4.56693,
3860.000,4.54049,
3859.000,4.50771,
3858.000,4.46864,
3857.000,4.42326,
3856.000,4.37291,
3855.000,4.32187,
3854.000,4.27682,
3853.000,4.24167,
3852.000,4.21204,
3851.000,4.18068,
3850.000,4.14499,
3849.000,4.10492,
3848.000,4.06297,
3847.000,4.02247,
3846.000,3.98259,
3845.000,3.94089,
3844.000,3.89711,
3843.000,3.85257,
3842.000,3.80757,
3841.000,3.761,
3840.000,3.71212,
3839.000,3.66183,
3838.000,3.6124,
3837.000,3.56541,
3836.000,3.51999,
3835.000,3.47391,
3834.000,3.4261,
3833.000,3.37751,
3832.000,3.32963,
3831.000,3.28301,
3830.000,3.23708,
3829.000,3.19116,
3828.000,3.14514,
3827.000,3.09962,
3826.000,3.05536,
3825.000,3.01246,
3824.000,2.97034,
3823.000,2.92778,
3822.000,2.88385,
3821.000,2.8392,
3820.000,2.79569,
3819.000,2.75476,
3818.000,2.71603,
3817.000,2.6769,
3816.000,2.6359,
3815.000,2.5948,
3814.000,2.55541,
3813.000,2.51783,
3812.000,2.48139,
3811.000,2.44613,
3810.000,2.41298,
3809.000,2.38205,
3808.000,2.35206,
3807.000,2.32138,
3806.000,2.28907,
3805.000,2.25586,
3804.000,2.22355,
3803.000,2.19273,
3802.000,2.16251,
3801.000,2.13225,
3800.000,2.10243,
3799.000,2.07409,
3798.000,2.04716,
3797.000,2.02044,
3796.000,1.99396,
3795.000,1.96872,
3794.000,1.94478,
3793.000,1.92128,
3792.000,1.89751,
3791.000,1.87362,
3790.000,1.85032,
3789.000,1.82801,
3788.000,1.80659,
3787.000,1.78562,
3786.000,1.76454,
3785.000,1.74315,
3784.000,1.72186,
3783.000,1.70132,
3782.000,1.68168,
3781.000,1.66248,
3780.000,1.64307,
3779.000,1.62301,
3778.000,1.60231,
3777.000,1.58146,
3776.000,1.56117,
3775.000,1.54186,
3774.000,1.52371,
3773.000,1.50691,
3772.000,1.49136,
3771.000,1.4763,
3770.000,1.46051,
3769.000,1.44341,
3768.000,1.42562,
3767.000,1.40812,
3766.000,1.3911,
3765.000,1.37439,
3764.000,1.35838,
3763.000,1.34378,
3762.000,1.33062,
3761.000,1.31803,
3760.000,1.30498,
3759.000,1.29092,
3758.000,1.27584,
3757.000,1.26027,
3756.000,1.24532,
3755.000,1.23206,
3754.000,1.22064,
3753.000,1.20993,
3752.000,1.1981,
3751.000,1.18363,
3750.000,1.16644,
3749.000,1.14841,
3748.000,1.13239,
3747.000,1.11977,
3746.000,1.10916,
3745.000,1.09738,
3744.000,1.08211,
3743.000,1.06429,
3742.000,1.04734,
3741.000,1.03387,
3740.000,1.02429,
3739.000,1.0178,
3738.000,1.01275,
3737.000,1.00674,
3736.000,0.997754,
3735.000,0.985324,
3734.000,0.970786,
3733.000,0.956128,
3732.000,0.942389,
3731.000,0.929456,
3730.000,0.917201,
3729.000,0.90597,
3728.000,0.896043,
3727.000,0.887126,
3726.000,0.87836,
3725.000,0.868944,
3724.000,0.858721,
3723.000,0.847931,
3722.000,0.83658,
3721.000,0.824501,
3720.000,0.811907,
3719.000,0.799598,
3718.000,0.788452,
3717.000,0.778648,
3716.000,0.769535,
3715.000,0.760303,
3714.000,0.750681,
3713.000,0.740906,
3712.000,0.731077,
3711.000,0.72066,
3710.000,0.709097,
3709.000,0.696768,
3708.000,0.684722,
3707.000,0.673716,
3706.000,0.663893,
3705.000,0.655089,
3704.000,0.64691,
3703.000,0.638699,
3702.000,0.629756,
3701.000,0.619918,
3700.000,0.60978,
3699.000,0.600067,
3698.000,0.591089,
3697.000,0.582845,
3696.000,0.575287,
3695.000,0.568089,
3694.000,0.560663,
3693.000,0.552824,
3692.000,0.545199,
3691.000,0.538455,
3690.000,0.532153,
3689.000,0.524905,
3688.000,0.515854,
3687.000,0.505594,
3686.000,0.495402,
3685.000,0.486273,
3684.000,0.478782,
3683.000,0.473111,
3682.000,0.468799,
3681.000,0.464977,
3680.000,0.461056,
3679.000,0.457088,
3678.000,0.453423,
3677.000,0.44996,
3676.000,0.445826,
3675.000,0.440053,
3674.000,0.432869,
3673.000,0.425794,
3672.000,0.420024,
3671.000,0.415328,
3670.000,0.410709,
3669.000,0.405557,
3668.000,0.400354,
3667.000,0.396193,
3666.000,0.393459,
3665.000,0.391526,
3664.000,0.389407,
3663.000,0.386309,
3662.000,0.382077,
3661.000,0.377316,
3660.000,0.372882,
3659.000,0.369188,
3658.000,0.36605,
3657.000,0.363259,
3656.000,0.361028,
3655.000,0.359604,
3654.000,0.358664,
3653.000,0.357486,
3652.000,0.355584,
3651.000,0.353008,
3650.000,0.350114,
3649.000,0.347204,
3648.000,0.344388,
3647.000,0.341542,
3646.000,0.338417,
3645.000,0.335071,
3644.000,0.332105,
3643.000,0.330131,
3642.000,0.329073,
3641.000,0.32824,
3640.000,0.327036,
3639.000,0.325451,
3638.000,0.323904,
3637.000,0.322802,
3636.000,0.322203,
3635.000,0.321733,
3634.000,0.320862,
3633.000,0.319414,
3632.000,0.317748,
3631.000,0.316283,
3630.000,0.314972,
3629.000,0.313413,
3628.000,0.311435,
3627.000,0.309355,
3626.000,0.307648,
3625.000,0.306563,
3624.000,0.306294,
3623.000,0.306993,
3622.000,0.308246,
3621.000,0.30907,
3620.000,0.3086,
3619.000,0.306729,
3618.000,0.304209,
3617.000,0.302093,
3616.000,0.300946,
3615.000,0.300501,
3614.000,0.30002,
3613.000,0.299022,
3612.000,0.297723,
3611.000,0.296681,
3610.000,0.296024,
3609.000,0.295265,
3608.000,0.293974,
3607.000,0.292419,
3606.000,0.291388,
3605.000,0.291467,
3604.000,0.292611,
3603.000,0.29429,
3602.000,0.295831,
3601.000,0.296712,
3600.000,0.296778,
3599.000,0.296271,
3598.000,0.295611,
3597.000,0.295055,
3596.000,0.294599,
3595.000,0.294117,
3594.000,0.293591,
3593.000,0.29316,
3592.000,0.292944,
3591.000,0.292833,
3590.000,0.292601,
3589.000,0.292215,
3588.000,0.291916,
3587.000,0.291957,
3586.000,0.292315,
3585.000,0.292728,
3584.000,0.292925,
3583.000,0.292829,
3582.000,0.292668,
3581.000,0.292897,
3580.000,0.293909,
3579.000,0.295684,
3578.000,0.297601,
3577.000,0.298734,
3576.000,0.298558,
3575.000,0.297438,
3574.000,0.296409,
3573.000,0.29641,
3572.000,0.297672,
3571.000,0.29974,
3570.000,0.301942,
3569.000,0.30377,
3568.000,0.304869,
3567.000,0.304997,
3566.000,0.304247,
3565.000,0.303197,
3564.000,0.302555,
3563.000,0.302657,
3562.000,0.30344,
3561.000,0.304716,
3560.000,0.306308,
3559.000,0.307997,
3558.000,0.309508,
3557.000,0.310659,
3556.000,0.311598,
3555.000,0.312799,
3554.000,0.314714,
3553.000,0.317273,
3552.000,0.319778,
3551.000,0.321452,
3550.000,0.322172,
3549.000,0.322572,
3548.000,0.32336,
3547.000,0.324652,
3546.000,0.326014,
3545.000,0.327058,
3544.000,0.327865,
3543.000,0.32886,
3542.000,0.330426,
3541.000,0.332582,
3540.000,0.334883,
3539.000,0.336669,
3538.000,0.33766,
3537.000,0.338334,
3536.000,0.339574,
3535.000,0.341889,
3534.000,0.345042,
3533.000,0.348362,
3532.000,0.351274,
3531.000,0.35361,
3530.000,0.355661,
3529.000,0.357982,
3528.000,0.36093,
3527.000,0.364313,
3526.000,0.36758,
3525.000,0.370321,
3524.000,0.37245,
3523.000,0.374054,
3522.000,0.375382,
3521.000,0.376954,
3520.000,0.379323,
3519.000,0.382542,
3518.000,0.386076,
3517.000,0.389404,
3516.000,0.392537,
3515.000,0.395825,
3514.000,0.399452,
3513.000,0.40327,
3512.000,0.407018,
3511.000,0.410526,
3510.000,0.413792,
3509.000,0.416993,
3508.000,0.420302,
3507.000,0.423634,
3506.000,0.426731,
3505.000,0.429596,
3504.000,0.432725,
3503.000,0.436692,
3502.000,0.441572,
3501.000,0.4469,
3500.000,0.452105,
3499.000,0.456882,
3498.000,0.461243,
3497.000,0.465422,
3496.000,0.46972,
3495.000,0.474285,
3494.000,0.478995,
3493.000,0.483679,
3492.000,0.488415,
3491.000,0.493478,
3490.000,0.499013,
3489.000,0.504922,
3488.000,0.511096,
3487.000,0.517595,
3486.000,0.524457,
3485.000,0.531441,
3484.000,0.53815,
3483.000,0.544424,
3482.000,0.550484,
3481.000,0.556685,
3480.000,0.563266,
3479.000,0.570414,
3478.000,0.578346,
3477.000,0.587046,
3476.000,0.595968,
3475.000,0.604308,
3474.000,0.611727,
3473.000,0.61867,
3472.000,0.625862,
3471.000,0.633649,
3470.000,0.641913,
3469.000,0.650402,
3468.000,0.658963,
3467.000,0.667611,
3466.000,0.676626,
3465.000,0.686388,
3464.000,0.696838,
3463.000,0.707208,
3462.000,0.716696,
3461.000,0.725457,
3460.000,0.734577,
3459.000,0.744878,
3458.000,0.75603,
3457.000,0.767032,
3456.000,0.777337,
3455.000,0.787271,
3454.000,0.797461,
3453.000,0.808166,
3452.000,0.819256,
3451.000,0.830635,
3450.000,0.842456,
3449.000,0.854849,
3448.000,0.867528,
3447.000,0.879816,
3446.000,0.891203,
3445.000,0.901853,
3444.000,0.912507,
3443.000,0.923884,
3442.000,0.936202,
3441.000,0.949166,
3440.000,0.962266,
3439.000,0.975078,
3438.000,0.987371,
3437.000,0.999058,
3436.000,1.01017,
3435.000,1.02094,
3434.000,1.03179,
3433.000,1.04308,
3432.000,1.05485,
3431.000,1.06676,
3430.000,1.07852,
3429.000,1.09004,
3428.000,1.10126,
3427.000,1.11205,
3426.000,1.12235,
3425.000,1.13236,
3424.000,1.14236,
3423.000,1.1524,
3422.000,1.16209,
3421.000,1.17088,
3420.000,1.17844,
3419.000,1.18497,
3418.000,1.1911,
3417.000,1.19743,
3416.000,1.20392,
3415.000,1.21007,
3414.000,1.2156,
3413.000,1.22083,
3412.000,1.2263,
3411.000,1.2321,
3410.000,1.238,
3409.000,1.24389,
3408.000,1.24995,
3407.000,1.25643,
3406.000,1.26369,
3405.000,1.27231,
3404.000,1.28286,
3403.000,1.29531,
3402.000,1.30904,
3401.000,1.32356,
3400.000,1.33898,
3399.000,1.35563,
3398.000,1.3735,
3397.000,1.39222,
3396.000,1.41154,
3395.000,1.43152,
3394.000,1.45238,
3393.000,1.47421,
3392.000,1.49688,
3391.000,1.52014,
3390.000,1.54372,
3389.000,1.56739,
3388.000,1.59094,
3387.000,1.61421,
3386.000,1.63714,
3385.000,1.65974,
3384.000,1.68203,
3383.000,1.70406,
3382.000,1.72608,
3381.000,1.74851,
3380.000,1.77162,
3379.000,1.79527,
3378.000,1.81897,
3377.000,1.8423,
3376.000,1.86521,
3375.000,1.88796,
3374.000,1.91086,
3373.000,1.93411,
3372.000,1.95765,
3371.000,1.9813,
3370.000,2.00505,
3369.000,2.02914,
3368.000,2.05376,
3367.000,2.07862,
3366.000,2.10301,
3365.000,2.12649,
3364.000,2.14922,
3363.000,2.17171,
3362.000,2.19439,
3361.000,2.21742,
3360.000,2.24086,
3359.000,2.26475,
3358.000,2.28897,
3357.000,2.3133,
3356.000,2.33746,
3355.000,2.36131,
3354.000,2.38498,
3353.000,2.40872,
3352.000,2.43276,
3351.000,2.45705,
3350.000,2.48121,
3349.000,2.50471,
3348.000,2.52724,
3347.000,2.54892,
3346.000,2.57029,
3345.000,2.59192,
3344.000,2.61389,
3343.000,2.63585,
3342.000,2.65737,
3341.000,2.67823,
3340.000,2.69836,
3339.000,2.71757,
3338.000,2.73552,
3337.000,2.75203,
3336.000,2.76732,
3335.000,2.78172,
3334.000,2.79532,
3333.000,2.80788,
3332.000,2.81909,
3331.000,2.82895,
3330.000,2.83764,
3329.000,2.84527,
3328.000,2.8517,
3327.000,2.85675,
3326.000,2.86038,
3325.000,2.86262,
3324.000,2.86338,
3323.000,2.86242,
3322.000,2.85949,
3321.000,2.85443,
3320.000,2.84725,
3319.000,2.83809,
3318.000,2.82737,
3317.000,2.81552,
3316.000,2.80263,
3315.000,2.78835,
3314.000,2.77225,
3313.000,2.75437,
3312.000,2.73507,
3311.000,2.71462,
3310.000,2.69295,
3309.000,2.66987,
3308.000,2.64556,
3307.000,2.6205,
3306.000,2.5952,
3305.000,2.56984,
3304.000,2.54414,
3303.000,2.51762,
3302.000,2.49001,
3301.000,2.4615,
3300.000,2.4325,
3299.000,2.40311,
3298.000,2.37308,
3297.000,2.34236,
3296.000,2.3115,
3295.000,2.28112,
3294.000,2.25126,
3293.000,2.22139,
3292.000,2.19118,
3291.000,2.16079,
3290.000,2.13044,
3289.000,2.10011,
3288.000,2.06967,
3287.000,2.03921,
3286.000,2.0089,
3285.000,1.97884,
3284.000,1.94909,
3283.000,1.91988,
3282.000,1.89141,
3281.000,1.86359,
3280.000,1.83608,
3279.000,1.80871,
3278.000,1.78162,
3277.000,1.75502,
3276.000,1.72903,
3275.000,1.70371,
3274.000,1.679,
3273.000,1.65454,
3272.000,1.62987,
3271.000,1.60491,
3270.000,1.5802,
3269.000,1.55647,
3268.000,1.534,
3267.000,1.51237,
3266.000,1.49096,
3265.000,1.4694,
3264.000,1.44769,
3263.000,1.42609,
3262.000,1.40499,
3261.000,1.38478,
3260.000,1.36558,
3259.000,1.34717,
3258.000,1.32916,
3257.000,1.31126,
3256.000,1.29346,
3255.000,1.27591,
3254.000,1.25874,
3253.000,1.24189,
3252.000,1.22521,
3251.000,1.20863,
3250.000,1.19219,
3249.000,1.17603,
3248.000,1.16019,
3247.000,1.14471,
3246.000,1.12967,
3245.000,1.1151,
3244.000,1.10082,
3243.000,1.08658,
3242.000,1.07233,
3241.000,1.05828,
3240.000,1.0446,
3239.000,1.0312,
3238.000,1.01791,
3237.000,1.00477,
3236.000,0.991925,
3235.000,0.979379,
3234.000,0.967068,
3233.000,0.955045,
3232.000,0.943359,
3231.000,0.931777,
3230.000,0.919879,
3229.000,0.907544,
3228.000,0.895215,
3227.000,0.883491,
3226.000,0.872521,
3225.000,0.861863,
3224.000,0.850972,
3223.000,0.839788,
3222.000,0.828786,
3221.000,0.81845,
3220.000,0.808696,
3219.000,0.798946,
3218.000,0.788757,
3217.000,0.778327,
3216.000,0.768279,
3215.000,0.759036,
3214.000,0.750418,
3213.000,0.741771,
3212.000,0.732446,
3211.000,0.722285,
3210.000,0.711777,
3209.000,0.70167,
3208.000,0.692307,
3207.000,0.683371,
3206.000,0.674298,
3205.000,0.664847,
3204.000,0.655189,
3203.000,0.645626,
3202.000,0.636375,
3201.000,0.627516,
3200.000,0.61894,
3199.000,0.610414,
3198.000,0.601859,
3197.000,0.593443,
3196.000,0.58524,
3195.000,0.576913,
3194.000,0.568051,
3193.000,0.55878,
3192.000,0.549728,
3191.000,0.541306,
3190.000,0.533262,
3189.000,0.525085,
3188.000,0.516625,
3187.000,0.508187,
3186.000,0.500092,
3185.000,0.492334,
3184.000,0.4846,
3183.000,0.47658,
3182.000,0.468251,
3181.000,0.459928,
3180.000,0.452037,
3179.000,0.444853,
3178.000,0.438418,
3177.000,0.432549,
3176.000,0.426837,
3175.000,0.420805,
3174.000,0.414282,
3173.000,0.407593,
3172.000,0.401222,
3171.000,0.395281,
3170.000,0.38944,
3169.000,0.383333,
3168.000,0.376921,
3167.000,0.370562,
3166.000,0.364829,
3165.000,0.360122,
3164.000,0.356143,
3163.000,0.351899,
3162.000,0.346573,
3161.000,0.340485,
3160.000,0.334844,
3159.000,0.33045,
3158.000,0.326907,
3157.000,0.323209,
3156.000,0.318771,
3155.000,0.313672,
3154.000,0.308226,
3153.000,0.302757,
3152.000,0.297694,
3151.000,0.293434,
3150.000,0.289984,
3149.000,0.286915,
3148.000,0.283872,
3147.000,0.280963,
3146.000,0.278485,
3145.000,0.276322,
3144.000,0.273851,
3143.000,0.270569,
3142.000,0.266676,
3141.000,0.262845,
3140.000,0.259458,
3139.000,0.256335,
3138.000,0.253239,
3137.000,0.250337,
3136.000,0.247929,
3135.000,0.245924,
3134.000,0.24389,
3133.000,0.241595,
3132.000,0.239295,
3131.000,0.237452,
3130.000,0.236307,
3129.000,0.235655,
3128.000,0.234902,
3127.000,0.233457,
3126.000,0.231254,
3125.000,0.228807,
3124.000,0.22659,
3123.000,0.224486,
3122.000,0.222071,
3121.000,0.219286,
3120.000,0.216504,
3119.000,0.21406,
3118.000,0.212061,
3117.000,0.210599,
3116.000,0.209698,
3115.000,0.209011,
3114.000,0.207994,
3113.000,0.206511,
3112.000,0.204887,
3111.000,0.203287,
3110.000,0.201472,
3109.000,0.199398,
3108.000,0.197609,
3107.000,0.196682,
3106.000,0.19653,
3105.000,0.196562,
3104.000,0.196295,
3103.000,0.19551,
3102.000,0.194094,
3101.000,0.192183,
3100.000,0.190393,
3099.000,0.189418,
3098.000,0.189262,
3097.000,0.189175,
3096.000,0.188461,
3095.000,0.1872,
3094.000,0.186062,
3093.000,0.185552,
3092.000,0.185558,
3091.000,0.185585,
3090.000,0.185324,
3089.000,0.184911,
3088.000,0.184595,
3087.000,0.184254,
3086.000,0.183446,
3085.000,0.181974,
3084.000,0.180181,
3083.000,0.178597,
3082.000,0.177499,
3081.000,0.176952,
3080.000,0.17701,
3079.000,0.177555,
3078.000,0.178051,
3077.000,0.177809,
3076.000,0.176562,
3075.000,0.174641,
3074.000,0.172671,
3073.000,0.171243,
3072.000,0.170755,
3071.000,0.171211,
3070.000,0.172113,
3069.000,0.172825,
3068.000,0.17314,
3067.000,0.173326,
3066.000,0.173578,
3065.000,0.173652,
3064.000,0.173173,
3063.000,0.17217,
3062.000,0.171129,
3061.000,0.170598,
3060.000,0.170813,
3059.000,0.171571,
3058.000,0.172373,
3057.000,0.172776,
3056.000,0.172775,
3055.000,0.172791,
3054.000,0.173184,
3053.000,0.173828,
3052.000,0.174275,
3051.000,0.174264,
3050.000,0.173973,
3049.000,0.173816,
3048.000,0.174103,
3047.000,0.174819,
3046.000,0.175579,
3045.000,0.17585,
3044.000,0.175426,
3043.000,0.174728,
3042.000,0.174497,
3041.000,0.175086,
3040.000,0.176167,
3039.000,0.177167,
3038.000,0.177822,
3037.000,0.178227,
3036.000,0.178553,
3035.000,0.178957,
3034.000,0.179669,
3033.000,0.180852,
3032.000,0.182288,
3031.000,0.183413,
3030.000,0.183815,
3029.000,0.183655,
3028.000,0.1835,
3027.000,0.183842,
3026.000,0.184824,
3025.000,0.186293,
3024.000,0.187975,
3023.000,0.189621,
3022.000,0.191128,
3021.000,0.192589,
3020.000,0.194186,
3019.000,0.195957,
3018.000,0.197692,
3017.000,0.199095,
3016.000,0.200099,
3015.000,0.201027,
3014.000,0.202343,
3013.000,0.20421,
3012.000,0.20632,
3011.000,0.208284,
3010.000,0.210153,
3009.000,0.212376,
3008.000,0.215194,
3007.000,0.21828,
3006.000,0.221119,
3005.000,0.223615,
3004.000,0.226118,
3003.000,0.228978,
3002.000,0.23231,
3001.000,0.236169,
3000.000,0.240639,
2999.000,0.245618,
2998.000,0.250735,
2997.000,0.25567,
2996.000,0.260458,
2995.000,0.265363,
2994.000,0.270546,
2993.000,0.276053,
2992.000,0.28203,
2991.000,0.28866,
2990.000,0.29581,
2989.000,0.302978,
2988.000,0.309812,
2987.000,0.316548,
2986.000,0.323681,
2985.000,0.331209,
2984.000,0.338469,
2983.000,0.344899,
2982.000,0.350733,
2981.000,0.356672,
2980.000,0.362851,
2979.000,0.368376,
2978.000,0.371995,
2977.000,0.3731,
2976.000,0.371983,
2975.000,0.369136,
2974.000,0.364491,
2973.000,0.357412,
2972.000,0.34742,
2971.000,0.334861,
2970.000,0.320711,
2969.000,0.305766,
2968.000,0.290129,
2967.000,0.273548,
2966.000,0.256098,
2965.000,0.238263,
2964.000,0.220493,
2963.000,0.202998,
2962.000,0.186141,
2961.000,0.170697,
2960.000,0.157461,
2959.000,0.146651,
2958.000,0.137811,
2957.000,0.13022,
2956.000,0.123231,
2955.000,0.116455,
2954.000,0.109848,
2953.000,0.103649,
2952.000,0.0981152,
2951.000,0.0932971,
2950.000,0.0891306,
2949.000,0.0855119,
2948.000,0.0821334,
2947.000,0.0784492,
2946.000,0.0741091,
2945.000,0.0694079,
2944.000,0.0650477,
2943.000,0.0614454,
2942.000,0.0584716,
2941.000,0.0558571,
2940.000,0.0536069,
2939.000,0.0519466,
2938.000,0.051015,
2937.000,0.0507042,
2936.000,0.0507164,
2935.000,0.0507907,
2934.000,0.0510237,
2933.000,0.0519287,
2932.000,0.0539315,
2931.000,0.0567877,
2930.000,0.0597342,
2929.000,0.0622042,
2928.000,0.0642853,
2927.000,0.0664659,
2926.000,0.0691377,
2925.000,0.0723762,
2924.000,0.0759967,
2923.000,0.0797014,
2922.000,0.083234,
2921.000,0.0865733,
2920.000,0.090023,
2919.000,0.0939792,
2918.000,0.098544,
2917.000,0.103393,
2916.000,0.108021,
2915.000,0.112111,
2914.000,0.115681,
2913.000,0.11893,
2912.000,0.12199,
2911.000,0.124818,
2910.000,0.127332,
2909.000,0.129646,
2908.000,0.132161,
2907.000,0.135291,
2906.000,0.139009,
2905.000,0.142747,
2904.000,0.145893,
2903.000,0.148444,
2902.000,0.151015,
2901.000,0.154151,
2900.000,0.157792,
2899.000,0.161543,
2898.000,0.165248,
2897.000,0.168991,
2896.000,0.172639,
2895.000,0.175828,
2894.000,0.178522,
2893.000,0.181292,
2892.000,0.184786,
2891.000,0.189067,
2890.000,0.193648,
2889.000,0.198021,
2888.000,0.202023,
2887.000,0.205828,
2886.000,0.209769,
2885.000,0.21405,
2884.000,0.218452,
2883.000,0.222403,
2882.000,0.225516,
2881.000,0.227925,
2880.000,0.229912,
2879.000,0.231324,
2878.000,0.231622,
2877.000,0.230481,
2876.000,0.228079,
2875.000,0.224736,
2874.000,0.220478,
2873.000,0.215021,
2872.000,0.208023,
2871.000,0.199318,
2870.000,0.189088,
2869.000,0.177918,
2868.000,0.166609,
2867.000,0.155845,
2866.000,0.14607,
2865.000,0.137615,
2864.000,0.130792,
2863.000,0.125796,
2862.000,0.122582,
2861.000,0.120876,
2860.000,0.120314,
2859.000,0.120597,
2858.000,0.121663,
2857.000,0.123741,
2856.000,0.127159,
2855.000,0.13204,
2854.000,0.138168,
2853.000,0.145102,
2852.000,0.152418,
2851.000,0.159927,
2850.000,0.167708,
2849.000,0.175933,
2848.000,0.184677,
2847.000,0.193971,
2846.000,0.203951,
2845.000,0.21473,
2844.000,0.226098,
2843.000,0.237619,
2842.000,0.24914,
2841.000,0.26099,
2840.000,0.273462,
2839.000,0.286312,
2838.000,0.298979,
2837.000,0.311215,
2836.000,0.323231,
2835.000,0.33527,
2834.000,0.34728,
2833.000,0.359002,
2832.000,0.370171,
2831.000,0.380614,
2830.000,0.390377,
2829.000,0.399858,
2828.000,0.409675,
2827.000,0.420272,
2826.000,0.431662,
2825.000,0.44355,
2824.000,0.455672,
2823.000,0.468051,
2822.000,0.481053,
2821.000,0.495148,
2820.000,0.510524,
2819.000,0.526936,
2818.000,0.544029,
2817.000,0.56174,
2816.000,0.580259,
2815.000,0.599632,
2814.000,0.619642,
2813.000,0.640047,
2812.000,0.660721,
2811.000,0.681462,
2810.000,0.701845,
2809.000,0.7215,
2808.000,0.740513,
2807.000,0.759433,
2806.000,0.778803,
2805.000,0.798678,
2804.000,0.818547,
2803.000,0.837722,
2802.000,0.855835,
2801.000,0.872989,
2800.000,0.889508,
2799.000,0.905606,
2798.000,0.921366,
2797.000,0.936983,
2796.000,0.952947,
2795.000,0.969982,
2794.000,0.988758,
2793.000,1.00947,
2792.000,1.03167,
2791.000,1.05456,
2790.000,1.07784,
2789.000,1.10183,
2788.000,1.1269,
2787.000,1.1526,
2786.000,1.17793,
2785.000,1.20236,
2784.000,1.22621,
2783.000,1.25009,
2782.000,1.27407,
2781.000,1.29779,
2780.000,1.32095,
2779.000,1.34372,
2778.000,1.36649,
2777.000,1.38973,
2776.000,1.41382,
2775.000,1.43874,
2774.000,1.46402,
2773.000,1.48904,
2772.000,1.51352,
2771.000,1.53767,
2770.000,1.56185,
2769.000,1.58629,
2768.000,1.61096,
2767.000,1.63559,
2766.000,1.65986,
2765.000,1.68357,
2764.000,1.70678,
2763.000,1.72962,
2762.000,1.75231,
2761.000,1.77528,
2760.000,1.79914,
2759.000,1.8242,
2758.000,1.85014,
2757.000,1.87638,
2756.000,1.90264,
2755.000,1.92895,
2754.000,1.95497,
2753.000,1.97991,
2752.000,2.003,
2751.000,2.02393,
2750.000,2.04272,
2749.000,2.0595,
2748.000,2.07434,
2747.000,2.08721,
2746.000,2.09781,
2745.000,2.10567,
2744.000,2.11045,
2743.000,2.11211,
2742.000,2.11079,
2741.000,2.10678,
2740.000,2.10057,
2739.000,2.09269,
2738.000,2.0832,
2737.000,2.07163,
2736.000,2.05741,
2735.000,2.04049,
2734.000,2.02151,
2733.000,2.0014,
2732.000,1.98086,
2731.000,1.95993,
2730.000,1.93805,
2729.000,1.91474,
2728.000,1.89001,
2727.000,1.86424,
2726.000,1.83765,
2725.000,1.81032,
2724.000,1.78235,
2723.000,1.75391,
2722.000,1.72492,
2721.000,1.69522,
2720.000,1.66493,
2719.000,1.6343,
2718.000,1.60344,
2717.000,1.57237,
2716.000,1.54146,
2715.000,1.51129,
2714.000,1.48206,
2713.000,1.45345,
2712.000,1.42522,
2711.000,1.39756,
2710.000,1.3707,
2709.000,1.34448,
2708.000,1.31853,
2707.000,1.29265,
2706.000,1.26671,
2705.000,1.24063,
2704.000,1.21446,
2703.000,1.18866,
2702.000,1.16369,
2701.000,1.13975,
2700.000,1.11681,
2699.000,1.09497,
2698.000,1.07418,
2697.000,1.05391,
2696.000,1.03333,
2695.000,1.01203,
2694.000,0.990416,
2693.000,0.969313,
2692.000,0.949239,
2691.000,0.930145,
2690.000,0.911662,
2689.000,0.893435,
2688.000,0.875303,
2687.000,0.857338,
2686.000,0.83968,
2685.000,0.822256,
2684.000,0.804712,
2683.000,0.786745,
2682.000,0.768518,
2681.000,0.750576,
2680.000,0.73341,
2679.000,0.717249,
2678.000,0.702324,
2677.000,0.689009,
2676.000,0.677399,
2675.000,0.666984,
2674.000,0.657011,
2673.000,0.647168,
2672.000,0.637708,
2671.000,0.628902,
2670.000,0.62075,
2669.000,0.61323,
2668.000,0.60648,
2667.000,0.60056,
2666.000,0.59517,
2665.000,0.589843,
2664.000,0.584302,
2663.000,0.57849,
2662.000,0.5724,
2661.000,0.566031,
2660.000,0.559391,
2659.000,0.552411,
2658.000,0.544918,
2657.000,0.536836,
2656.000,0.528368,
2655.000,0.519828,
2654.000,0.511354,
2653.000,0.502939,
2652.000,0.494656,
2651.000,0.486663,
2650.000,0.478982,
2649.000,0.471432,
2648.000,0.463846,
2647.000,0.456283,
2646.000,0.448965,
2645.000,0.442054,
2644.000,0.435494,
2643.000,0.429039,
2642.000,0.422464,
2641.000,0.415757,
2640.000,0.409076,
2639.000,0.402505,
2638.000,0.395937,
2637.000,0.389228,
2636.000,0.382378,
2635.000,0.375483,
2634.000,0.36856,
2633.000,0.36155,
2632.000,0.354453,
2631.000,0.347407,
2630.000,0.340609,
2629.000,0.33419,
2628.000,0.328083,
2627.000,0.321981,
2626.000,0.315489,
2625.000,0.308459,
2624.000,0.301178,
2623.000,0.294172,
2622.000,0.287814,
2621.000,0.282093,
2620.000,0.276669,
2619.000,0.271154,
2618.000,0.26543,
2617.000,0.259792,
2616.000,0.254711,
2615.000,0.250357,
2614.000,0.246427,
2613.000,0.242469,
2612.000,0.238315,
2611.000,0.234112,
2610.000,0.23004,
2609.000,0.226196,
2608.000,0.222664,
2607.000,0.219471,
2606.000,0.216397,
2605.000,0.212989,
2604.000,0.208961,
2603.000,0.204515,
2602.000,0.200222,
2601.000,0.196572,
2600.000,0.19367,
2599.000,0.191282,
2598.000,0.1891,
2597.000,0.186926,
2596.000,0.184667,
2595.000,0.182264,
2594.000,0.179672,
2593.000,0.176869,
2592.000,0.173823,
2591.000,0.170509,
2590.000,0.167067,
2589.000,0.163946,
2588.000,0.1617,
2587.000,0.160493,
2586.000,0.159876,
2585.000,0.15915,
2584.000,0.15792,
2583.000,0.156237,
2582.000,0.154313,
2581.000,0.152292,
2580.000,0.150292,
2579.000,0.148462,
2578.000,0.146857,
2577.000,0.145334,
2576.000,0.143698,
2575.000,0.141939,
2574.000,0.140229,
2573.000,0.138706,
2572.000,0.137312,
2571.000,0.135857,
2570.000,0.134186,
2569.000,0.132295,
2568.000,0.130361,
2567.000,0.128721,
2566.000,0.127746,
2565.000,0.127516,
2564.000,0.127569,
2563.000,0.127133,
2562.000,0.125799,
2561.000,0.123969,
2560.000,0.122451,
2559.000,0.121576,
2558.000,0.120881,
2557.000,0.119761,
2556.000,0.118284,
2555.000,0.117109,
2554.000,0.116628,
2553.000,0.116448,
2552.000,0.115881,
2551.000,0.114697,
2550.000,0.113221,
2549.000,0.111846,
2548.000,0.110771,
2547.000,0.110095,
2546.000,0.109799,
2545.000,0.109511,
2544.000,0.108622,
2543.000,0.106972,
2542.000,0.105244,
2541.000,0.104348,
2540.000,0.104452,
2539.000,0.104894,
2538.000,0.105045,
2537.000,0.104878,
2536.000,0.104633,
2535.000,0.104265,
2534.000,0.103502,
2533.000,0.1023,
2532.000,0.100984,
2531.000,0.0999367,
2530.000,0.0992919,
2529.000,0.0989634,
2528.000,0.0987935,
2527.000,0.09859,
2526.000,0.0981741,
2525.000,0.0975102,
2524.000,0.0967579,
2523.000,0.0961615,
2522.000,0.0958613,
2521.000,0.0957627,
2520.000,0.0955776,
2519.000,0.0950666,
2518.000,0.0943,
2517.000,0.0936348,
2516.000,0.0933481,
2515.000,0.0932986,
2514.000,0.0930299,
2513.000,0.0922279,
2512.000,0.0910558,
2511.000,0.0900295,
2510.000,0.0895589,
2509.000,0.0896087,
2508.000,0.0898077,
2507.000,0.0898684,
2506.000,0.0898365,
2505.000,0.0898727,
2504.000,0.0898815,
2503.000,0.0895617,
2502.000,0.0888304,
2501.000,0.0879711,
2500.000,0.0872983,
2499.000,0.0868807,
2498.000,0.0866757,
2497.000,0.0867326,
2496.000,0.0870699,
2495.000,0.0874412,
2494.000,0.0874291,
2493.000,0.0867861,
2492.000,0.0856224,
2491.000,0.0843314,
2490.000,0.0834244,
2489.000,0.0833078,
2488.000,0.0839783,
2487.000,0.0849389,
2486.000,0.0855977,
2485.000,0.085813,
2484.000,0.0859532,
2483.000,0.0864123,
2482.000,0.0871696,
2481.000,0.0878119,
2480.000,0.0878487,
2479.000,0.0870225,
2478.000,0.0854943,
2477.000,0.0838135,
2476.000,0.0825965,
2475.000,0.0821277,
2474.000,0.0822758,
2473.000,0.0827685,
2472.000,0.0834543,
2471.000,0.0842569,
2470.000,0.0849968,
2469.000,0.0854017,
2468.000,0.0853398,
2467.000,0.0849811,
2466.000,0.0846467,
2465.000,0.0844761,
2464.000,0.0842844,
2463.000,0.083849,
2462.000,0.0833216,
2461.000,0.0832189,
2460.000,0.0839322,
2459.000,0.0852852,
2458.000,0.0866136,
2457.000,0.0872538,
2456.000,0.0869744,
2455.000,0.0860904,
2454.000,0.0852759,
2453.000,0.0851301,
2452.000,0.0857176,
2451.000,0.0865077,
2450.000,0.0868565,
2449.000,0.0865665,
2448.000,0.0859415,
2447.000,0.0853912,
2446.000,0.0851374,
2445.000,0.085271,
2444.000,0.0858469,
2443.000,0.0867594,
2442.000,0.0876433,
2441.000,0.0880799,
2440.000,0.0879398,
2439.000,0.0874915,
2438.000,0.0871993,
2437.000,0.0874449,
2436.000,0.088328,
2435.000,0.0895904,
2434.000,0.0907105,
2433.000,0.0912158,
2432.000,0.0910482,
2431.000,0.0906386,
2430.000,0.0905428,
2429.000,0.0909336,
2428.000,0.0914623,
2427.000,0.0917041,
2426.000,0.0917181,
2425.000,0.0920008,
2424.000,0.0928371,
2423.000,0.0938752,
2422.000,0.0944632,
2421.000,0.0943322,
2420.000,0.093844,
2419.000,0.0936033,
2418.000,0.0939274,
2417.000,0.094684,
2416.000,0.0955308,
2415.000,0.0962258,
2414.000,0.0967114,
2413.000,0.0970022,
2412.000,0.0971099,
2411.000,0.0971163,
2410.000,0.0972026,
2409.000,0.0974688,
2408.000,0.0977874,
2407.000,0.0979949,
2406.000,0.0981947,
2405.000,0.0986592,
2404.000,0.0994064,
2403.000,0.100101,
2402.000,0.100491,
2401.000,0.100759,
2400.000,0.101308,
2399.000,0.102326,
2398.000,0.103652,
2397.000,0.104945,
2396.000,0.105883,
2395.000,0.106339,
2394.000,0.106508,
2393.000,0.10675,
2392.000,0.107165,
2391.000,0.107492,
2390.000,0.107622,
2389.000,0.108014,
2388.000,0.109258,
2387.000,0.111283,
2386.000,0.113349,
2385.000,0.11487,
2384.000,0.115975,
2383.000,0.117144,
2382.000,0.118558,
2381.000,0.119989,
2380.000,0.12117,
2379.000,0.122063,
2378.000,0.122798,
2377.000,0.12355,
2376.000,0.12446,
2375.000,0.125549,
2374.000,0.126774,
2373.000,0.128283,
2372.000,0.130486,
2371.000,0.133607,
2370.000,0.13712,
2369.000,0.139956,
2368.000,0.141504,
2367.000,0.142296,
2366.000,0.143445,
2365.000,0.145423,
2364.000,0.14759,
2363.000,0.149059,
2362.000,0.149907,
2361.000,0.151227,
2360.000,0.153819,
2359.000,0.157425,
2358.000,0.161232,
2357.000,0.164439,
2356.000,0.166702,
2355.000,0.168071,
2354.000,0.168902,
2353.000,0.169941,
2352.000,0.171533,
2351.000,0.173528,
2350.000,0.175662,
2349.000,0.178301,
2348.000,0.182028,
2347.000,0.186319,
2346.000,0.19005,
2345.000,0.192531,
2344.000,0.194418,
2343.000,0.197014,
2342.000,0.200664,
2341.000,0.204862,
2340.000,0.208489,
2339.000,0.2114,
2338.000,0.214136,
2337.000,0.217236,
2336.000,0.220926,
2335.000,0.224921,
2334.000,0.228999,
2333.000,0.232998,
2332.000,0.236954,
2331.000,0.24066,
2330.000,0.24409,
2329.000,0.247302,
2328.000,0.250904,
2327.000,0.254802,
2326.000,0.259216,
2325.000,0.263864,
2324.000,0.268824,
2323.000,0.273913,
2322.000,0.278835,
2321.000,0.283677,
2320.000,0.288557,
2319.000,0.2939,
2318.000,0.299855,
2317.000,0.306354,
2316.000,0.313238,
2315.000,0.320145,
2314.000,0.327102,
2313.000,0.333919,
2312.000,0.340752,
2311.000,0.347308,
2310.000,0.353798,
2309.000,0.360303,
2308.000,0.367413,
2307.000,0.375133,
2306.000,0.383352,
2305.000,0.391443,
2304.000,0.399247,
2303.000,0.406954,
2302.000,0.415382,
2301.000,0.425,
2300.000,0.43563,
2299.000,0.446133,
2298.000,0.455645,
2297.000,0.463986,
2296.000,0.472018,
2295.000,0.480449,
2294.000,0.489626,
2293.000,0.499182,
2292.000,0.508762,
2291.000,0.518086,
2290.000,0.527356,
2289.000,0.537081,
2288.000,0.54771,
2287.000,0.559095,
2286.000,0.57056,
2285.000,0.581706,
2284.000,0.592824,
2283.000,0.604478,
2282.000,0.616628,
2281.000,0.628732,
2280.000,0.640454,
2279.000,0.652161,
2278.000,0.664346,
2277.000,0.676963,
2276.000,0.689358,
2275.000,0.700902,
2274.000,0.711522,
2273.000,0.721744,
2272.000,0.732402,
2271.000,0.744042,
2270.000,0.756595,
2269.000,0.769417,
2268.000,0.781875,
2267.000,0.793858,
2266.000,0.805799,
2265.000,0.818232,
2264.000,0.831351,
2263.000,0.844893,
2262.000,0.858491,
2261.000,0.872028,
2260.000,0.885687,
2259.000,0.899611,
2258.000,0.913604,
2257.000,0.927388,
2256.000,0.94089,
2255.000,0.954312,
2254.000,0.967851,
2253.000,0.981692,
2252.000,0.996113,
2251.000,1.01122,
2250.000,1.0266,
2249.000,1.04146,
2248.000,1.05549,
2247.000,1.06925,
2246.000,1.08352,
2245.000,1.09849,
2244.000,1.11378,
2243.000,1.12899,
2242.000,1.14404,
2241.000,1.15893,
2240.000,1.17357,
2239.000,1.18797,
2238.000,1.20232,
2237.000,1.21698,
2236.000,1.23219,
2235.000,1.24786,
2234.000,1.26356,
2233.000,1.27875,
2232.000,1.29314,
2231.000,1.30684,
2230.000,1.32001,
2229.000,1.33264,
2228.000,1.34458,
2227.000,1.35587,
2226.000,1.36664,
2225.000,1.37694,
2224.000,1.38659,
2223.000,1.39518,
2222.000,1.40233,
2221.000,1.40782,
2220.000,1.41169,
2219.000,1.41417,
2218.000,1.4154,
2217.000,1.41527,
2216.000,1.41362,
2215.000,1.41032,
2214.000,1.40546,
2213.000,1.39927,
2212.000,1.39205,
2211.000,1.38395,
2210.000,1.37483,
2209.000,1.36444,
2208.000,1.35264,
2207.000,1.33951,
2206.000,1.32524,
2205.000,1.31012,
2204.000,1.29443,
2203.000,1.27827,
2202.000,1.26154,
2201.000,1.2442,
2200.000,1.22633,
2199.000,1.2079,
2198.000,1.18859,
2197.000,1.16823,
2196.000,1.14705,
2195.000,1.1255,
2194.000,1.10384,
2193.000,1.08212,
2192.000,1.06045,
2191.000,1.03894,
2190.000,1.01761,
2189.000,0.996398,
2188.000,0.975405,
2187.000,0.954704,
2186.000,0.93424,
2185.000,0.913963,
2184.000,0.893958,
2183.000,0.874274,
2182.000,0.854796,
2181.000,0.835483,
2180.000,0.816546,
2179.000,0.798193,
2178.000,0.780433,
2177.000,0.7634,
2176.000,0.747607,
2175.000,0.733493,
2174.000,0.72082,
2173.000,0.70889,
2172.000,0.697245,
2171.000,0.685828,
2170.000,0.674561,
2169.000,0.663283,
2168.000,0.652133,
2167.000,0.641495,
2166.000,0.63135,
2165.000,0.621088,
2164.000,0.610229,
2163.000,0.599022,
2162.000,0.58802,
2161.000,0.577268,
2160.000,0.566345,
2159.000,0.555099,
2158.000,0.543954,
2157.000,0.533409,
2156.000,0.523535,
2155.000,0.51411,
2154.000,0.504974,
2153.000,0.496018,
2152.000,0.48696,
2151.000,0.477498,
2150.000,0.467713,
2149.000,0.458058,
2148.000,0.448814,
2147.000,0.439756,
2146.000,0.430531,
2145.000,0.421219,
2144.000,0.412298,
2143.000,0.404105,
2142.000,0.396486,
2141.000,0.388973,
2140.000,0.381134,
2139.000,0.372803,
2138.000,0.364207,
2137.000,0.355914,
2136.000,0.348446,
2135.000,0.341804,
2134.000,0.335459,
2133.000,0.328861,
2132.000,0.321928,
2131.000,0.314985,
2130.000,0.308355,
2129.000,0.302055,
2128.000,0.295831,
2127.000,0.289478,
2126.000,0.283109,
2125.000,0.277048,
2124.000,0.271417,
2123.000,0.265972,
2122.000,0.2604,
2121.000,0.254674,
2120.000,0.248961,
2119.000,0.243321,
2118.000,0.237707,
2117.000,0.232215,
2116.000,0.227035,
2115.000,0.22214,
2114.000,0.217219,
2113.000,0.212019,
2112.000,0.206592,
2111.000,0.201203,
2110.000,0.196151,
2109.000,0.19168,
2108.000,0.187853,
2107.000,0.18441,
2106.000,0.18091,
2105.000,0.177104,
2104.000,0.173039,
2103.000,0.168836,
2102.000,0.16456,
2101.000,0.160375,
2100.000,0.156614,
2099.000,0.15353,
2098.000,0.151062,
2097.000,0.148932,
2096.000,0.146862,
2095.000,0.144648,
2094.000,0.142139,
2093.000,0.13933,
2092.000,0.136417,
2091.000,0.133654,
2090.000,0.131139,
2089.000,0.128764,
2088.000,0.126369,
2087.000,0.123927,
2086.000,0.121568,
2085.000,0.11944,
2084.000,0.117474,
2083.000,0.115389,
2082.000,0.113004,
2081.000,0.110527,
2080.000,0.10843,
2079.000,0.107018,
2078.000,0.10612,
2077.000,0.105147,
2076.000,0.103502,
2075.000,0.101054,
2074.000,0.0983185,
2073.000,0.0960904,
2072.000,0.0947574,
2071.000,0.0940036,
2070.000,0.0932747,
2069.000,0.0923821,
2068.000,0.0914841,
2067.000,0.0906187,
2066.000,0.0895669,
2065.000,0.0882155,
2064.000,0.0868101,
2063.000,0.0857505,
2062.000,0.0852363,
2061.000,0.0851158,
2060.000,0.0849349,
2059.000,0.0841818,
2058.000,0.0826998,
2057.000,0.080863,
2056.000,0.0792067,
2055.000,0.0779284,
2054.000,0.0768865,
2053.000,0.0760073,
2052.000,0.075415,
2051.000,0.0751096,
2050.000,0.074788,
2049.000,0.0741361,
2048.000,0.0731738,
2047.000,0.0722014,
2046.000,0.0714908,
2045.000,0.0710904,
2044.000,0.0708561,
2043.000,0.0705841,
2042.000,0.0701117,
2041.000,0.0693863,
2040.000,0.068478,
2039.000,0.067525,
2038.000,0.0667076,
2037.000,0.066212,
2036.000,0.0660794,
2035.000,0.066094,
2034.000,0.0659348,
2033.000,0.0654701,
2032.000,0.0648189,
2031.000,0.0641321,
2030.000,0.0634128,
2029.000,0.062534,
2028.000,0.0613841,
2027.000,0.0600282,
2026.000,0.0587389,
2025.000,0.0578731,
2024.000,0.0576669,
2023.000,0.0580174,
2022.000,0.0584918,
2021.000,0.0586248,
2020.000,0.0582194,
2019.000,0.0574168,
2018.000,0.056544,
2017.000,0.0558303,
2016.000,0.0551785,
2015.000,0.0543068,
2014.000,0.0532053,
2013.000,0.0522539,
2012.000,0.0517356,
2011.000,0.0514269,
2010.000,0.0509026,
2009.000,0.0501953,
2008.000,0.0498241,
2007.000,0.0500074,
2006.000,0.0502605,
2005.000,0.0500398,
2004.000,0.0493831,
2003.000,0.0487035,
2002.000,0.0482455,
2001.000,0.0480111,
2000.000,0.0480886,
1999.000,0.048655,
1998.000,0.0495298,
1997.000,0.0500531,
1996.000,0.0496823,
1995.000,0.0486312,
1994.000,0.0477184,
1993.000,0.0475905,
1992.000,0.048195,
1991.000,0.0489931,
1990.000,0.0494674,
1989.000,0.0492947,
1988.000,0.0483207,
1987.000,0.0467546,
1986.000,0.0453414,
1985.000,0.0449213,
1984.000,0.0455831,
1983.000,0.0464359,
1982.000,0.0464533,
1981.000,0.045465,
1980.000,0.044156,
1979.000,0.0432861,
1978.000,0.0431493,
1977.000,0.0436113,
1976.000,0.0443268,
1975.000,0.0448949,
1974.000,0.0450365,
1973.000,0.0447364,
1972.000,0.0441793,
1971.000,0.0435876,
1970.000,0.043198,
1969.000,0.0432395,
1968.000,0.043658,
1967.000,0.0440144,
1966.000,0.0439237,
1965.000,0.0435017,
1964.000,0.0431822,
1963.000,0.0431275,
1962.000,0.0430915,
1961.000,0.0428857,
1960.000,0.0426341,
1959.000,0.0424653,
1958.000,0.0422802,
1957.000,0.042022,
1956.000,0.0418956,
1955.000,0.0421021,
1954.000,0.0425353,
1953.000,0.0428859,
1952.000,0.0429157,
1951.000,0.0425401,
1950.000,0.0418226,
1949.000,0.0410542,
1948.000,0.0407094,
1947.000,0.041103,
1946.000,0.0420572,
1945.000,0.0430202,
1944.000,0.0435641,
1943.000,0.0437147,
1942.000,0.0437721,
1941.000,0.0438823,
1940.000,0.0438711,
1939.000,0.0434965,
1938.000,0.0427776,
1937.000,0.042009,
1936.000,0.0414943,
1935.000,0.0413278,
1934.000,0.0413971,
1933.000,0.0414973,
1932.000,0.0414538,
1931.000,0.0412441,
1930.000,0.0410297,
1929.000,0.0410108,
1928.000,0.0412291,
1927.000,0.0415302,
1926.000,0.0417205,
1925.000,0.0417131,
1924.000,0.0415219,
1923.000,0.04127,
1922.000,0.0412226,
1921.000,0.0415951,
1920.000,0.04221,
1919.000,0.0425358,
1918.000,0.0422475,
1917.000,0.0416689,
1916.000,0.0413963,
1915.000,0.0416042,
1914.000,0.042027,
1913.000,0.0424015,
1912.000,0.0426353,
1911.000,0.0426648,
1910.000,0.0424233,
1909.000,0.0419963,
1908.000,0.0416129,
1907.000,0.041416,
1906.000,0.0413684,
1905.000,0.0414058,
1904.000,0.041548,
1903.000,0.0418167,
1902.000,0.042126,
1901.000,0.0423189,
1900.000,0.0422817,
1899.000,0.0420501,
1898.000,0.0418798,
1897.000,0.0421521,
1896.000,0.0430344,
1895.000,0.0442257,
1894.000,0.0451718,
1893.000,0.045564,
1892.000,0.0455629,
1891.000,0.0455582,
1890.000,0.045817,
1889.000,0.0463241,
1888.000,0.0467874,
1887.000,0.0468428,
1886.000,0.0464112,
1885.000,0.0458208,
1884.000,0.0455114,
1883.000,0.0456664,
1882.000,0.0461766,
1881.000,0.0468417,
1880.000,0.047457,
1879.000,0.0477853,
1878.000,0.0477082,
1877.000,0.0474227,
1876.000,0.0472763,
1875.000,0.0473808,
1874.000,0.0475228,
1873.000,0.0474887,
1872.000,0.0473587,
1871.000,0.0474083,
1870.000,0.0478601,
1869.000,0.0487702,
1868.000,0.0499861,
1867.000,0.0511427,
1866.000,0.0517966,
1865.000,0.0517539,
1864.000,0.0513029,
1863.000,0.0510316,
1862.000,0.0513899,
1861.000,0.0523879,
1860.000,0.0536492,
1859.000,0.054743,
1858.000,0.0554753,
1857.000,0.0559019,
1856.000,0.0561676,
1855.000,0.0564191,
1854.000,0.0568296,
1853.000,0.0575573,
1852.000,0.0586008,
1851.000,0.0597308,
1850.000,0.0606417,
1849.000,0.0612172,
1848.000,0.0616016,
1847.000,0.0620564,
1846.000,0.0627663,
1845.000,0.0637333,
1844.000,0.0648014,
1843.000,0.0658682,
1842.000,0.0669228,
1841.000,0.067767,
1840.000,0.0681884,
1839.000,0.0683867,
1838.000,0.0688426,
1837.000,0.069821,
1836.000,0.0711182,
1835.000,0.072419,
1834.000,0.0737427,
1833.000,0.0752338,
1832.000,0.0766128,
1831.000,0.0772678,
1830.000,0.0770986,
1829.000,0.0769665,
1828.000,0.0778435,
1827.000,0.0797844,
1826.000,0.0821024,
1825.000,0.0841131,
1824.000,0.0855137,
1823.000,0.0865015,
1822.000,0.0876857,
1821.000,0.0895933,
1820.000,0.0920724,
1819.000,0.0943861,
1818.000,0.0961205,
1817.000,0.0976911,
1816.000,0.0997266,
1815.000,0.102346,
1814.000,0.105238,
1813.000,0.108074,
1812.000,0.110502,
1811.000,0.112129,
1810.000,0.112968,
1809.000,0.113617,
1808.000,0.11468,
1807.000,0.116221,
1806.000,0.118033,
1805.000,0.120183,
1804.000,0.122985,
1803.000,0.126565,
1802.000,0.130689,
1801.000,0.13492,
1800.000,0.138852,
1799.000,0.142459,
1798.000,0.146413,
1797.000,0.151633,
1796.000,0.158294,
1795.000,0.165565,
1794.000,0.172457,
1793.000,0.178742,
1792.000,0.185095,
1791.000,0.192699,
1790.000,0.202309,
1789.000,0.213391,
1788.000,0.22483,
1787.000,0.236099,
1786.000,0.247384,
1785.000,0.259049,
1784.000,0.271037,
1783.000,0.282769,
1782.000,0.293769,
1781.000,0.30442,
1780.000,0.315569,
1779.000,0.327342,
1778.000,0.339025,
1777.000,0.349609,
1776.000,0.358389,
1775.000,0.365054,
1774.000,0.369529,
1773.000,0.371753,
1772.000,0.371697,
1771.000,0.370372,
1770.000,0.369101,
1769.000,0.367965,
1768.000,0.367286,
1767.000,0.368538,
1766.000,0.37268,
1765.000,0.379208,
1764.000,0.387284,
1763.000,0.396947,
1762.000,0.408597,
1761.000,0.421981,
1760.000,0.435503,
1759.000,0.446184,
1758.000,0.451759,
1757.000,0.452171,
1756.000,0.44837,
1755.000,0.440503,
1754.000,0.427933,
1753.000,0.411022,
1752.000,0.391739,
1751.000,0.372261,
1750.000,0.35415,
1749.000,0.337848,
1748.000,0.322621,
1747.000,0.307539,
1746.000,0.291638,
1745.000,0.273834,
1744.000,0.253513,
1743.000,0.231109,
1742.000,0.207628,
1741.000,0.183786,
1740.000,0.16034,
1739.000,0.138759,
1738.000,0.120431,
1737.000,0.105155,
1736.000,0.0916646,
1735.000,0.0789145,
1734.000,0.0664637,
1733.000,0.0549975,
1732.000,0.0454612,
1731.000,0.037598,
1730.000,0.0308399,
1729.000,0.0251876,
1728.000,0.0208339,
1727.000,0.0178171,
1726.000,0.01582,
1725.000,0.0140548,
1724.000,0.0116369,
1723.000,0.00836219,
1722.000,0.0050835,
1721.000,0.00286967,
1720.000,0.00183845,
1719.000,0.00126074,
1718.000,0.00079594,
1717.000,0.000836787,
1716.000,0.00110912,
1715.000,0.000812991,
1714.000,0.000268315,
1713.000,0.000360394,
1712.000,0.000431602,
1711.000,0.000257475,
1710.000,0.000775647,
1709.000,0.00110987,
1708.000,0.000853485,
1707.000,0.00129002,
1706.000,0.00238006,
1705.000,0.00324542,
1704.000,0.00400105,
1703.000,0.00493362,
1702.000,0.00630315,
1701.000,0.00864314,
1700.000,0.01215,
1699.000,0.0161501,
1698.000,0.0196582,
1697.000,0.0221694,
1696.000,0.024008,
1695.000,0.0260542,
1694.000,0.0287275,
1693.000,0.0316031,
1692.000,0.0339203,
1691.000,0.0355084,
1690.000,0.0369333,
1689.000,0.0389937,
1688.000,0.0421013,
1687.000,0.0458861,
1686.000,0.0496953,
1685.000,0.0531526,
1684.000,0.056226,
1683.000,0.059459,
1682.000,0.0631833,
1681.000,0.0668123,
1680.000,0.0700598,
1679.000,0.0732506,
1678.000,0.0764936,
1677.000,0.0797176,
1676.000,0.0829721,
1675.000,0.0862788,
1674.000,0.0897368,
1673.000,0.0935365,
1672.000,0.097384,
1671.000,0.101194,
1670.000,0.105875,
1669.000,0.112481,
1668.000,0.121288,
1667.000,0.131405,
1666.000,0.1416,
1665.000,0.151577,
1664.000,0.162213,
1663.000,0.173575,
1662.000,0.186447,
1661.000,0.199969,
1660.000,0.216823,
1659.000,0.233194,
1658.000,0.246171,
1657.000,0.260148,
1656.000,0.273677,
1655.000,0.28776,
1654.000,0.301897,
1653.000,0.315593,
1652.000,0.327212,
1651.000,0.336251,
1650.000,0.343994,
1649.000,0.352178,
1648.000,0.361811,
1647.000,0.372628,
1646.000,0.383401,
1645.000,0.393543,
1644.000,0.403106,
1643.000,0.412434,
1642.000,0.420546,
1641.000,0.428508,
1640.000,0.433824,
1639.000,0.436832,
1638.000,0.439445,
1637.000,0.44035,
1636.000,0.442537,
1635.000,0.447624,
1634.000,0.458206,
1633.000,0.473368,
1632.000,0.488116,
1631.000,0.500341,
1630.000,0.512297,
1629.000,0.525449,
1628.000,0.540076,
1627.000,0.556198,
1626.000,0.572374,
1625.000,0.585866,
1624.000,0.595309,
1623.000,0.602237,
1622.000,0.609611,
1621.000,0.61768,
1620.000,0.622268,
1619.000,0.620044,
1618.000,0.612643,
1617.000,0.603018,
1616.000,0.593122,
1615.000,0.584022,
1614.000,0.572894,
1613.000,0.556815,
1612.000,0.539301,
1611.000,0.525569,
1610.000,0.516579,
1609.000,0.510524,
1608.000,0.505972,
1607.000,0.502295,
1606.000,0.49835,
1605.000,0.492724,
1604.000,0.484766,
1603.000,0.474677,
1602.000,0.463217,
1601.000,0.451132,
1600.000,0.438817,
1599.000,0.426379,
1598.000,0.413786,
1597.000,0.401008,
1596.000,0.388235,
1595.000,0.375938,
1594.000,0.364529,
1593.000,0.353925,
1592.000,0.343689,
1591.000,0.333586,
1590.000,0.323817,
1589.000,0.314718,
1588.000,0.306414,
1587.000,0.298852,
1586.000,0.291925,
1585.000,0.285305,
1584.000,0.278358,
1583.000,0.270294,
1582.000,0.260983,
1581.000,0.251279,
1580.000,0.24195,
1579.000,0.233151,
1578.000,0.225252,
1577.000,0.219091,
1576.000,0.215004,
1575.000,0.212251,
1574.000,0.209183,
1573.000,0.203496,
1572.000,0.196082,
1571.000,0.19017,
1570.000,0.184822,
1569.000,0.178851,
1568.000,0.173018,
1567.000,0.16754,
1566.000,0.162334,
1565.000,0.157037,
1564.000,0.152173,
1563.000,0.147424,
1562.000,0.143612,
1561.000,0.138274,
1560.000,0.135002,
1559.000,0.124666,
1558.000,0.115048,
1557.000,0.114456,
1556.000,0.112889,
1555.000,0.110877,
1554.000,0.107245,
1553.000,0.104289,
1552.000,0.10194,
1551.000,0.100093,
1550.000,0.0982904,
1549.000,0.0962382,
1548.000,0.0938907,
1547.000,0.0914686,
1546.000,0.0889901,
1545.000,0.0861832,
1544.000,0.0830109,
1543.000,0.0798493,
1542.000,0.0770261,
1541.000,0.0745752,
1540.000,0.0726265,
1539.000,0.0717257,
1538.000,0.0719601,
1537.000,0.0720387,
1536.000,0.0705227,
1535.000,0.0675993,
1534.000,0.064191,
1533.000,0.0610183,
1532.000,0.0589284,
1531.000,0.058155,
1530.000,0.0578944,
1529.000,0.0572096,
1528.000,0.0558772,
1527.000,0.0543247,
1526.000,0.0528862,
1525.000,0.051519,
1524.000,0.0502555,
1523.000,0.0493951,
1522.000,0.049101,
1521.000,0.0491334,
1520.000,0.0491898,
1519.000,0.0489065,
1518.000,0.0478064,
1517.000,0.0459952,
1516.000,0.0443756,
1515.000,0.0438022,
1514.000,0.0441177,
1513.000,0.0443459,
1512.000,0.0438339,
1511.000,0.0428155,
1510.000,0.0418891,
1509.000,0.0413386,
1508.000,0.0411086,
1507.000,0.0410233,
1506.000,0.040894,
1505.000,0.0406832,
1504.000,0.0406229,
1503.000,0.0405717,
1502.000,0.0403037,
1501.000,0.0398033,
1500.000,0.0388273,
1499.000,0.0372633,
1498.000,0.035433,
1497.000,0.0338377,
1496.000,0.0328044,
1495.000,0.0323374,
1494.000,0.032054,
1493.000,0.0315614,
1492.000,0.030949,
1491.000,0.0305476,
1490.000,0.0304347,
1489.000,0.030484,
1488.000,0.0305863,
1487.000,0.03058,
1486.000,0.0301368,
1485.000,0.0291222,
1484.000,0.0280771,
1483.000,0.0277345,
1482.000,0.0280239,
1481.000,0.028047,
1480.000,0.0271918,
1479.000,0.0259385,
1478.000,0.025282,
1477.000,0.0255521,
1476.000,0.0261578,
1475.000,0.0264113,
1474.000,0.0261075,
1473.000,0.0253675,
1472.000,0.0244002,
1471.000,0.0233912,
1470.000,0.0224058,
1469.000,0.0214779,
1468.000,0.0208005,
1467.000,0.0206141,
1466.000,0.0208193,
1465.000,0.0208886,
1464.000,0.0204136,
1463.000,0.0195221,
1462.000,0.0184863,
1461.000,0.0173918,
1460.000,0.0163941,
1459.000,0.0158796,
1458.000,0.0161861,
1457.000,0.0170812,
1456.000,0.0178007,
1455.000,0.0179362,
1454.000,0.0177626,
1453.000,0.0176272,
1452.000,0.0175122,
1451.000,0.0171749,
1450.000,0.0166916,
1449.000,0.0167298,
1448.000,0.0179087,
1447.000,0.0198935,
1446.000,0.0216335,
1445.000,0.022531,
1444.000,0.022886,
1443.000,0.0232785,
1442.000,0.0237876,
1441.000,0.0239257,
1440.000,0.0233053,
1439.000,0.0221343,
1438.000,0.0209896,
1437.000,0.0202746,
1436.000,0.0200287,
1435.000,0.0200544,
1434.000,0.0200208,
1433.000,0.0197015,
1432.000,0.0192067,
1431.000,0.0188206,
1430.000,0.018715,
1429.000,0.0188775,
1428.000,0.0192285,
1427.000,0.0196964,
1426.000,0.0201176,
1425.000,0.0202351,
1424.000,0.0199371,
1423.000,0.0194294,
1422.000,0.0191088,
1421.000,0.0192969,
1420.000,0.0200472,
1419.000,0.0210311,
1418.000,0.0217892,
1417.000,0.0222101,
1416.000,0.0225688,
1415.000,0.0230502,
1414.000,0.0233701,
1413.000,0.0231028,
1412.000,0.0223153,
1411.000,0.0215059,
1410.000,0.0208919,
1409.000,0.0202389,
1408.000,0.0195139,
1407.000,0.0191932,
1406.000,0.0195688,
1405.000,0.0201642,
1404.000,0.0203206,
1403.000,0.0199799,
1402.000,0.0194307,
1401.000,0.0186838,
1400.000,0.0176444,
1399.000,0.0166124,
1398.000,0.0160465,
1397.000,0.0159947,
1396.000,0.0163206,
1395.000,0.0171879,
1394.000,0.018686,
1393.000,0.0202297,
1392.000,0.020937,
1391.000,0.020558,
1390.000,0.0195876,
1389.000,0.0185873,
1388.000,0.0177855,
1387.000,0.0172694,
1386.000,0.0171043,
1385.000,0.0171651,
1384.000,0.0171893,
1383.000,0.0170227,
1382.000,0.0167122,
1381.000,0.0164345,
1380.000,0.0164086,
1379.000,0.016761,
1378.000,0.0173038,
1377.000,0.017584,
1376.000,0.0173563,
1375.000,0.0168569,
1374.000,0.0164543,
1373.000,0.0162246,
1372.000,0.0160125,
1371.000,0.0158439,
1370.000,0.0160723,
1369.000,0.0168153,
1368.000,0.0176674,
1367.000,0.0183146,
1366.000,0.0188334,
1365.000,0.0193259,
1364.000,0.0197155,
1363.000,0.0198365,
1362.000,0.0194485,
1361.000,0.0183262,
1360.000,0.0167251,
1359.000,0.0155101,
1358.000,0.0153392,
1357.000,0.0159833,
1356.000,0.016544,
1355.000,0.0163215,
1354.000,0.0156155,
1353.000,0.0152304,
1352.000,0.0153894,
1351.000,0.0156385,
1350.000,0.0155311,
1349.000,0.0150559,
1348.000,0.014487,
1347.000,0.0141686,
1346.000,0.0143765,
1345.000,0.0150731,
1344.000,0.0158567,
1343.000,0.0162832,
1342.000,0.0162083,
1341.000,0.0158363,
1340.000,0.0155295,
1339.000,0.0156049,
1338.000,0.0161631,
1337.000,0.0169027,
1336.000,0.0172676,
1335.000,0.0170192,
1334.000,0.0165497,
1333.000,0.0164431,
1332.000,0.0167563,
1331.000,0.0170581,
1330.000,0.0171118,
1329.000,0.0169802,
1328.000,0.0167502,
1327.000,0.0166418,
1326.000,0.0169163,
1325.000,0.0174535,
1324.000,0.0179147,
1323.000,0.0181241,
1322.000,0.0180399,
1321.000,0.0178,
1320.000,0.0176917,
1319.000,0.0178253,
1318.000,0.0180508,
1317.000,0.0180312,
1316.000,0.0173924,
1315.000,0.0161464,
1314.000,0.0148915,
1313.000,0.0144121,
1312.000,0.014941,
1311.000,0.0157683,
1310.000,0.0158857,
1309.000,0.0148916,
1308.000,0.0132349,
1307.000,0.0119475,
1306.000,0.0119902,
1305.000,0.0133983,
1304.000,0.014939,
1303.000,0.0151294,
1302.000,0.0138983,
1301.000,0.0127265,
1300.000,0.0129045,
1299.000,0.0141145,
1298.000,0.0150102,
1297.000,0.014913,
1296.000,0.0144124,
1295.000,0.0142628,
1294.000,0.0143854,
1293.000,0.0143595,
1292.000,0.0142895,
1291.000,0.0146366,
1290.000,0.0155091,
1289.000,0.0165359,
1288.000,0.017359,
1287.000,0.0178683,
1286.000,0.0180068,
1285.000,0.0177841,
1284.000,0.0174953,
1283.000,0.0176275,
1282.000,0.0181544,
1281.000,0.0183122,
1280.000,0.0175082,
1279.000,0.0160482,
1278.000,0.0149292,
1277.000,0.0149682,
1276.000,0.0160649,
1275.000,0.0173406,
1274.000,0.0180408,
1273.000,0.0182353,
1272.000,0.0185065,
1271.000,0.0191566,
1270.000,0.0199003,
1269.000,0.0201743,
1268.000,0.0198002,
1267.000,0.0193274,
1266.000,0.0195206,
1265.000,0.0205581,
1264.000,0.0217885,
1263.000,0.0223148,
1262.000,0.0218019,
1261.000,0.0206791,
1260.000,0.0197239,
1259.000,0.0194272,
1258.000,0.0196158,
1257.000,0.0199509,
1256.000,0.0205239,
1255.000,0.0212119,
1254.000,0.0212942,
1253.000,0.0205353,
1252.000,0.0196232,
1251.000,0.0193601,
1250.000,0.0201136,
1249.000,0.021823,
1248.000,0.0239412,
1247.000,0.0256085,
1246.000,0.0261867,
1245.000,0.0257097,
1244.000,0.0248983,
1243.000,0.024612,
1242.000,0.025115,
1241.000,0.0259616,
1240.000,0.0267209,
1239.000,0.0275541,
1238.000,0.0287661,
1237.000,0.0299749,
1236.000,0.0302631,
1235.000,0.0294277,
1234.000,0.0286639,
1233.000,0.0293336,
1232.000,0.031185,
1231.000,0.0326215,
1230.000,0.0324994,
1229.000,0.0310589,
1228.000,0.0293368,
1227.000,0.0279796,
1226.000,0.0267259,
1225.000,0.0249389,
1224.000,0.0223571,
1223.000,0.0193268,
1222.000,0.0164919,
1221.000,0.0142816,
1220.000,0.0126935,
1219.000,0.0116711,
1218.000,0.0113717,
1217.000,0.0119399,
1216.000,0.0133429,
1215.000,0.0150694,
1214.000,0.016479,
1213.000,0.0175542,
1212.000,0.0187039,
1211.000,0.0200351,
1210.000,0.0211261,
1209.000,0.0216232,
1208.000,0.0218675,
1207.000,0.0226134,
1206.000,0.0240745,
1205.000,0.0255477,
1204.000,0.0262142,
1203.000,0.0261573,
1202.000,0.0263108,
1201.000,0.0274372,
1200.000,0.0293527,
1199.000,0.031121,
1198.000,0.0320602,
1197.000,0.0323566,
1196.000,0.0324447,
1195.000,0.0322284,
1194.000,0.0313181,
1193.000,0.0298459,
1192.000,0.0285932,
1191.000,0.0283144,
1190.000,0.0292517,
1189.000,0.0312106,
1188.000,0.0338134,
1187.000,0.0365738,
1186.000,0.0388831,
1185.000,0.040227,
1184.000,0.0405212,
1183.000,0.0401688,
1182.000,0.0397726,
1181.000,0.0398746,
1180.000,0.0408406,
1179.000,0.0426436,
1178.000,0.0448387,
1177.000,0.0470365,
1176.000,0.0491469,
1175.000,0.0510766,
1174.000,0.0524786,
1173.000,0.0530668,
1172.000,0.0531478,
1171.000,0.0534556,
1170.000,0.0544533,
1169.000,0.0559771,
1168.000,0.0576287,
1167.000,0.0595281,
1166.000,0.0621253,
1165.000,0.0652682,
1164.000,0.0682194,
1163.000,0.0705081,
1162.000,0.0722301,
1161.000,0.0736917,
1160.000,0.0752723,
1159.000,0.0774325,
1158.000,0.0803509,
1157.000,0.0837311,
1156.000,0.0871302,
1155.000,0.0902424,
1154.000,0.0929826,
1153.000,0.095573,
1152.000,0.0983794,
1151.000,0.101435,
1150.000,0.104379,
1149.000,0.1069,
1148.000,0.109266,
1147.000,0.112379,
1146.000,0.116887,
1145.000,0.122178,
1144.000,0.126741,
1143.000,0.129704,
1142.000,0.131565,
1141.000,0.13325,
1140.000,0.134945,
1139.000,0.136239,
1138.000,0.137018,
1137.000,0.137544,
1136.000,0.137857,
1135.000,0.13757,
1134.000,0.136243,
1133.000,0.133538,
1132.000,0.129089,
1131.000,0.1228,
1130.000,0.115187,
1129.000,0.10703,
1128.000,0.0984947,
1127.000,0.0889981,
1126.000,0.0781195,
1125.000,0.0661942,
1124.000,0.0540543,
1123.000,0.0425004,
1122.000,0.032247,
1121.000,0.0240286,
1120.000,0.0182941,
1119.000,0.0151472,
1118.000,0.0147888,
1117.000,0.0171598,
1116.000,0.0212303,
1115.000,0.0255635,
1114.000,0.0294377,
1113.000,0.0333574,
1112.000,0.0385363,
1111.000,0.0457498,
1110.000,0.0547624,
1109.000,0.0645428,
1108.000,0.0738668,
1107.000,0.0819984,
1106.000,0.0890343,
1105.000,0.0955742,
1104.000,0.101898,
1103.000,0.107643,
1102.000,0.112474,
1101.000,0.116797,
1100.000,0.121298,
1099.000,0.125793,
1098.000,0.129043,
1097.000,0.129734,
1096.000,0.127618,
1095.000,0.123662,
1094.000,0.11923,
1093.000,0.115197,
1092.000,0.111658,
1091.000,0.108448,
1090.000,0.105849,
1089.000,0.104433,
1088.000,0.104069,
1087.000,0.103472,
1086.000,0.101313,
1085.000,0.0977512,
1084.000,0.0942863,
1083.000,0.0920229,
1082.000,0.0906105,
1081.000,0.0888526,
1080.000,0.0861199,
1079.000,0.0828879,
1078.000,0.0798592,
1077.000,0.0770202,
1076.000,0.0737213,
1075.000,0.0695316,
1074.000,0.0649617,
1073.000,0.0612687,
1072.000,0.0592025,
1071.000,0.05782,
1070.000,0.0552544,
1069.000,0.0509347,
1068.000,0.046387,
1067.000,0.0435139,
1066.000,0.0425094,
1065.000,0.0420079,
1064.000,0.04085,
1063.000,0.0389739,
1062.000,0.0367359,
1061.000,0.034245,
1060.000,0.0317458,
1059.000,0.0300776,
1058.000,0.0299873,
1057.000,0.0310724,
1056.000,0.0319455,
1055.000,0.0315397,
1054.000,0.0301707,
1053.000,0.0292761,
1052.000,0.0300501,
1051.000,0.0324472,
1050.000,0.0354977,
1049.000,0.0383019,
1048.000,0.0404811,
1047.000,0.0417407,
1046.000,0.0415552,
1045.000,0.0397764,
1044.000,0.0370673,
1043.000,0.0344931,
1042.000,0.0330394,
1041.000,0.0328821,
1040.000,0.0328427,
1039.000,0.031616,
1038.000,0.0293806,
1037.000,0.0274426,
1036.000,0.0266379,
1035.000,0.0266228,
1034.000,0.0265063,
1033.000,0.0259997,
1032.000,0.0256873,
1031.000,0.0258228,
1030.000,0.025656,
1029.000,0.0243725,
1028.000,0.0222318,
1027.000,0.020322,
1026.000,0.0192176,
1025.000,0.0183622,
1024.000,0.0172112,
1023.000,0.0164528,
1022.000,0.0166166,
1021.000,0.0166145,
1020.000,0.0152116,
1019.000,0.012551,
1018.000,0.0102102,
1017.000,0.00995573,
1016.000,0.0118899,
1015.000,0.0145723,
1014.000,0.0162921,
1013.000,0.0161482,
1012.000,0.0144986,
1011.000,0.0122423,
1010.000,0.0101831,
1009.000,0.00883173,
1008.000,0.00816176,
1007.000,0.00775121,
1006.000,0.00745847,
1005.000,0.00757708,
1004.000,0.00825969,
1003.000,0.00928376,
1002.000,0.0101237,
1001.000,0.0102358,
1000.000,0.00946014,
999.000,0.00833415,
998.000,0.00812125,
997.000,0.00900131,
996.000,0.00958964,
995.000,0.00893011,
994.000,0.00719072,
993.000,0.00559442,
992.000,0.00545277,
991.000,0.0059056,
990.000,0.00519878,
989.000,0.00383927,
988.000,0.00336548,
987.000,0.00386089,
986.000,0.00501395,
985.000,0.00620095,
984.000,0.00668514,
983.000,0.00607956,
982.000,0.00471637,
981.000,0.00362118,
980.000,0.00360299,
979.000,0.00448243,
978.000,0.00541459,
977.000,0.00564399,
976.000,0.00503874,
975.000,0.00400394,
974.000,0.0040091,
973.000,0.00572785,
972.000,0.00679598,
971.000,0.00588041,
970.000,0.00376299,
969.000,0.00301316,
968.000,0.0045019,
967.000,0.00590449,
966.000,0.00658107,
965.000,0.00655964,
964.000,0.00575461,
963.000,0.00401285,
962.000,0.00230167,
961.000,0.00304345,
960.000,0.0040584,
959.000,0.00396687,
958.000,0.00394222,
957.000,0.00522819,
956.000,0.00684875,
955.000,0.00718882,
954.000,0.00587442,
953.000,0.00391184,
952.000,0.00282539,
951.000,0.00339097,
950.000,0.00451646,
949.000,0.00501437,
948.000,0.00448322,
947.000,0.00344197,
946.000,0.0026748,
945.000,0.0022408,
944.000,0.0026455,
943.000,0.00463601,
942.000,0.00722363,
941.000,0.00885862,
940.000,0.00811397,
939.000,0.00530571,
938.000,0.00438647,
937.000,0.00628726,
936.000,0.00689924,
935.000,0.00589125,
934.000,0.00446024,
933.000,0.0034808,
932.000,0.00309128,
931.000,0.00307308,
930.000,0.0036563,
929.000,0.00491017,
928.000,0.0063508,
927.000,0.00686161,
926.000,0.00566903,
925.000,0.00304149,
924.000,0.000801733,
923.000,0.00192446,
922.000,0.00270735,
921.000,0.00241779,
920.000,0.00182653,
919.000,0.00265974,
918.000,0.00344678,
917.000,0.00297415,
916.000,0.00232934,
915.000,0.00300796,
914.000,0.00505586,
913.000,0.00701417,
912.000,0.00778911,
911.000,0.00738896,
910.000,0.0065941,
909.000,0.00636578,
908.000,0.00629749,
907.000,0.00504766,
906.000,0.00231415,
905.000,0.000807352,
904.000,0.00243233,
903.000,0.0026922,
902.000,0.00335904,
901.000,0.00387506,
900.000,0.00329104,
899.000,0.00300457,
898.000,0.00301707,
897.000,0.00259251,
896.000,0.00187425,
895.000,0.00159213,
894.000,0.00348215,
893.000,0.0066147,
892.000,0.00855953,
891.000,0.00799026,
890.000,0.00538418,
889.000,0.00188308,
888.000,0.00171783,
887.000,0.00541473,
886.000,0.00756554,
885.000,0.00680883,
884.000,0.00398424,
883.000,0.00244842,
882.000,0.00269572,
881.000,0.00191934,
880.000,0.00260565,
879.000,0.00405493,
878.000,0.00501325,
877.000,0.005411,
876.000,0.00424189,
875.000,0.0016584,
874.000,0.00057646,
873.000,0.00175835,
872.000,0.00195397,
871.000,0.00406107,
870.000,0.00608153,
869.000,0.00649306,
868.000,0.00687066,
867.000,0.00707864,
866.000,0.00613138,
865.000,0.0043447,
864.000,0.00186967,
863.000,0.00120812,
862.000,0.00378846,
861.000,0.00577231,
860.000,0.00684441,
859.000,0.00724953,
858.000,0.00753065,
857.000,0.00869039,
856.000,0.00983115,
855.000,0.00951199,
854.000,0.00743438,
853.000,0.00477844,
852.000,0.00256599,
851.000,0.000834705,
850.000,0.000519785,
849.000,0.00060947,
848.000,0.00199797,
847.000,0.00489892,
846.000,0.00570531,
845.000,0.00393878,
844.000,0.00305332,
843.000,0.00303802,
842.000,0.00134331,
841.000,0.00129188,
840.000,0.00344882,
839.000,0.00519042,
838.000,0.00624458,
837.000,0.00588576,
836.000,0.00449737,
835.000,0.00274568,
834.000,0.00143385,
833.000,0.00222082,
832.000,0.0038171,
831.000,0.00522343,
830.000,0.00626953,
829.000,0.00606741,
828.000,0.00438599,
827.000,0.00243297,
826.000,0.00176023,
825.000,0.00361506,
824.000,0.00517945,
823.000,0.00441646,
822.000,0.00374101,
821.000,0.00446797,
820.000,0.00438926,
819.000,0.00384547,
818.000,0.00354212,
817.000,0.00300039,
816.000,0.00254055,
815.000,0.00239953,
814.000,0.00205466,
813.000,0.00184612,
812.000,0.00275825,
811.000,0.00336562,
810.000,0.00304781,
809.000,0.00350547,
808.000,0.00524148,
807.000,0.00761735,
806.000,0.00935479,
805.000,0.00918317,
804.000,0.00757759,
803.000,0.00574571,
802.000,0.0047923,
801.000,0.00495951,
800.000,0.00469452,
799.000,0.0033986,
798.000,0.00266903,
797.000,0.00318301,
796.000,0.0035933,
795.000,0.00417781,
794.000,0.00539779,
793.000,0.00583284,
792.000,0.00465218,
791.000,0.00257565,
790.000,0.00252339,
789.000,0.00524257,
788.000,0.00688923,
787.000,0.00652569,
786.000,0.005029,
785.000,0.00343812,
784.000,0.00366852,
783.000,0.00556453,
782.000,0.00674828,
781.000,0.00671615,
780.000,0.00647461,
779.000,0.00602342,
778.000,0.0054482,
777.000,0.0061597,
776.000,0.00887026,
775.000,0.0117876,
774.000,0.0122003,
773.000,0.00907293,
772.000,0.00358256,
771.000,0.00164402,
770.000,0.0041822,
769.000,0.00465457,
768.000,0.00341525,
767.000,0.00146409,
766.000,0.00194853,
765.000,0.00536813,
764.000,0.00848476,
763.000,0.0100656,
762.000,0.00971974,
761.000,0.00678445,
760.000,0.00268,
759.000,0.00325105,
758.000,0.00585643,
757.000,0.00548693,
756.000,0.00282409,
755.000,0.000362918,
754.000,0.000521237,
753.000,0.00348181,
752.000,0.00688443,
751.000,0.00795258,
750.000,0.00634879,
749.000,0.0036798,
748.000,0.0023899,
747.000,0.00302398,
746.000,0.00342878,
745.000,0.00362302,
744.000,0.00355161,
743.000,0.00336962,
742.000,0.00431876,
741.000,0.0051073,
740.000,0.00472329,
739.000,0.00414012,
738.000,0.00415235,
737.000,0.00472308,
736.000,0.00531079,
735.000,0.0053039,
734.000,0.00460813,
733.000,0.00378813,
732.000,0.00388958,
731.000,0.0047385,
730.000,0.00477856,
729.000,0.00354035,
728.000,0.00321353,
727.000,0.00476237,
726.000,0.00568668,
725.000,0.00509467,
724.000,0.0043053,
723.000,0.00458614,
722.000,0.00510451,
721.000,0.00531362,
720.000,0.0055267,
719.000,0.00498683,
718.000,0.00340615,
717.000,0.00310853,
716.000,0.00480608,
715.000,0.00605014,
714.000,0.00582292,
713.000,0.0050054,
712.000,0.00340806,
711.000,0.00127223,
710.000,0.00246885,
709.000,0.00525457,
708.000,0.00623721,
707.000,0.00631864,
706.000,0.00626377,
705.000,0.00588688,
704.000,0.00418594,
703.000,0.00140826,
702.000,0.00202271,
701.000,0.00509066,
700.000,0.00620954,
699.000,0.00562272,
698.000,0.00357671,
697.000,0.00195447,
696.000,0.00389831,
695.000,0.00663002,
694.000,0.00816797,
693.000,0.00854135,
692.000,0.0078993,
691.000,0.00699197,
690.000,0.00603971,
689.000,0.00486762,
688.000,0.00377131,
687.000,0.00406929,
686.000,0.00576113,
685.000,0.00670446,
684.000,0.00623037,
683.000,0.00311164,
682.000,0.00136207,
681.000,0.0035042,
680.000,0.00209253,
679.000,0.00173778,
678.000,0.00365587,
677.000,0.00466567,
676.000,0.00703074,
675.000,0.00722479,
674.000,0.0053725,
673.000,0.00326998,
672.000,0.00197385,
671.000,0.00300055,
670.000,0.00408741,
669.000,0.00574325,
668.000,0.00859262,
667.000,0.0108203,
666.000,0.0113828,
665.000,0.0103666,
664.000,0.00908956,
663.000,0.00879329,
662.000,0.008839,
661.000,0.00762987,
660.000,0.00479314,
659.000,0.00288977,
658.000,0.0030371,
657.000,0.00475073,
656.000,0.00378466,
655.000,0.000898273,
654.000,0.0036085,
653.000,0.00610847,
652.000,0.00608711,
651.000,0.00517943,
650.000,0.00369257,
649.000,0.00363245,
648.000,0.00235697,
647.000,0.00252647,
646.000,0.0076599,
645.000,0.012269,
644.000,0.0138242,
643.000,0.0131161,
642.000,0.0111232,
641.000,0.00907045,
640.000,0.00637696,
639.000,0.003163,
638.000,0.00397338,
637.000,0.00950464,
636.000,0.0134061,
635.000,0.0133588,
634.000,0.0113235,
633.000,0.00970789,
632.000,0.00935876,
631.000,0.00995414,
630.000,0.00965414,
629.000,0.00763101,
628.000,0.00517032,
627.000,0.004168,
626.000,0.00337251,
625.000,0.00212345,
624.000,0.00120597,
623.000,0.00051566,
622.000,0.00303667,
621.000,0.00601647,
620.000,0.00718341,
619.000,0.00560765,
618.000,0.00192464,
617.000,0.00432289,
616.000,0.0118688,
615.000,0.0167766,
614.000,0.0163557,
613.000,0.0135558,
612.000,0.0125645,
611.000,0.0137855,
610.000,0.0126315,
609.000,0.0104969,
608.000,0.00602004,
607.000,0.00256295,
606.000,0.0100984,
605.000,0.0164836,
604.000,0.0171858,
603.000,0.0170177,
602.000,0.0183186,
601.000,0.0193735,
600.000,0.0162944,
599.000,0.0094306,
598.000,0.00241111,
597.000,0.00290529,
596.000,0.00663864,
595.000,0.00856887,
594.000,0.00913692,
593.000,0.00844353,
592.000,0.00832019,
591.000,0.00929972,
590.000,0.00948796,
589.000,0.00709613,
588.000,0.00452892,
587.000,0.00469341,
586.000,0.00787779,
585.000,0.0125648,
584.000,0.0149497,
583.000,0.0139087,
582.000,0.011945,
581.000,0.0115187,
580.000,0.0137098,
579.000,0.0175577,
578.000,0.0212212,
577.000,0.0220919,
576.000,0.019314,
575.000,0.0134793,
574.000,0.00742458,
573.000,0.00876468,
572.000,0.0172124,
571.000,0.0240113,
570.000,0.02408,
569.000,0.0169069,
568.000,0.00657416,
567.000,0.0032829,
566.000,0.00579615,
565.000,0.00728291,
564.000,0.010854,
563.000,0.0135828,
562.000,0.0132169,
561.000,0.011059,
560.000,0.00758696,
559.000,0.00492653,
558.000,0.00410696,
557.000,0.00434888,
556.000,0.00384047,
555.000,0.00311151,
554.000,0.00362941,
553.000,0.00613126,
552.000,0.0103573,
551.000,0.010198,
550.000,0.00732663,
549.000,0.0112953,
548.000,0.0170431,
547.000,0.0182982,
546.000,0.0159653,
545.000,0.0106512,
544.000,0.00639948,
543.000,0.00557436,
542.000,0.00625605,
541.000,0.00420231,
540.000,0.00166686,
539.000,0.00605075,
538.000,0.00758663,
537.000,0.00435547,
536.000,0.00966707,
535.000,0.0202129,
534.000,0.0250319,
533.000,0.0211975,
532.000,0.0110893,
531.000,0.00654912,
530.000,0.0059356,
529.000,0.00264044,
528.000,0.00631914,
527.000,0.0099655,
526.000,0.0135695,
525.000,0.0189571,
524.000,0.0211176,
523.000,0.0148455,
522.000,0.00863691,
521.000,0.0205416,
520.000,0.0297537,
519.000,0.0257923,
518.000,0.013615,
517.000,0.00296814,
516.000,0.00210069,
515.000,0.00297729,
514.000,0.0068436,
513.000,0.00848639,
512.000,0.00759133,
511.000,0.0119684,
510.000,0.0138347,
509.000,0.0095097,
508.000,0.012032,
507.000,0.0197193,
506.000,0.0216398,
505.000,0.022324,
504.000,0.0263611,
503.000,0.0305483,
502.000,0.029106,
501.000,0.0204576,
500.000,0.00759438,
499.000,0.00282181,
498.000,0.0101886,
497.000,0.0174705,
496.000,0.023171,
495.000,0.0252236,
494.000,0.0217226,
493.000,0.01657,
492.000,0.0118516,
491.000,0.0104909,
490.000,0.0141425,
489.000,0.018804,
488.000,0.0182376,
487.000,0.0139083,
486.000,0.0132828,
485.000,0.0205828,
484.000,0.0319537,
483.000,0.041255,
482.000,0.0463881,
481.000,0.0479066,
480.000,0.0459796,
479.000,0.0425974,
478.000,0.0416775,
477.000,0.0424333,
476.000,0.0442582,
475.000,0.0495473,
474.000,0.0625623,
473.000,0.0718094,
472.000,0.0692446,
471.000,0.0448656,
470.000,0.0163833,
469.000,0.0214518,
468.000,0.0344561,
467.000,0.0272351,
466.000,0.0100991,
465.000,0.0167984,
464.000,0.0326162,
463.000,0.0327881,
462.000,0.0387908,
461.000,0.0456187,
460.000,0.0438148,
459.000,0.0265696,
458.000,0.00675641,
457.000,0.0125376,
456.000,0.0224611,
455.000,0.0309261,
454.000,0.0471836,
453.000,0.0631191,
452.000,0.0728148,
451.000,0.0732895,
450.000,0.0695371,
449.000,0.0632629,
448.000,0.054424,
447.000,0.0408017,
446.000,0.0291269,
445.000,0.0305513,
444.000,0.0366635,
443.000,0.0369448,
442.000,0.0350974,
441.000,0.0333343,
440.000,0.0261329,
439.000,0.015289,
438.000,0.0104435,
437.000,0.0126569,
436.000,0.019675,
435.000,0.0336116,
434.000,0.0488876,
433.000,0.054134,
432.000,0.0512292,
431.000,0.0510615,
430.000,0.0532262,
429.000,0.0510417,
428.000,0.046031,
427.000,0.0484698,
426.000,0.0685771,
425.000,0.0935868,
424.000,0.112753,
423.000,0.113168,
422.000,0.101074,
421.000,0.0657137,
420.000,0.0189191,
419.000,0.0366136,
418.000,0.0563582,
417.000,0.0302379,
416.000,0.0239677,
415.000,0.0457927,
414.000,0.0668892,
413.000,0.090483,
412.000,0.120825,
411.000,0.149418,
410.000,0.163542,
409.000,0.157391,
408.000,0.143351,
407.000,0.128562,
406.000,0.117807,
405.000,0.111684,
404.000,0.102685,
403.000,0.0721583,
402.000,0.0440103,
401.000,0.0716695,
400.000,0.128627,
