,d2o 116 By Administrator Date Wednesday. December 15 2021,
Time,11:42:47,
Wavenumbers [1/cm],Transmittance %,
7000.000,10.4999,
6999.000,10.5663,
6998.000,10.6256,
6997.000,10.6804,
6996.000,10.7383,
6995.000,10.8042,
6994.000,10.8744,
6993.000,10.9416,
6992.000,11.0025,
6991.000,11.0614,
6990.000,11.1243,
6989.000,11.1927,
6988.000,11.2622,
6987.000,11.3275,
6986.000,11.3873,
6985.000,11.4458,
6984.000,11.507,
6983.000,11.5701,
6982.000,11.6323,
6981.000,11.6933,
6980.000,11.7548,
6979.000,11.8169,
6978.000,11.877,
6977.000,11.9339,
6976.000,11.9888,
6975.000,12.0421,
6974.000,12.0942,
6973.000,12.1488,
6972.000,12.2116,
6971.000,12.2832,
6970.000,12.3567,
6969.000,12.425,
6968.000,12.4864,
6967.000,12.5416,
6966.000,12.5901,
6965.000,12.6312,
6964.000,12.6682,
6963.000,12.706,
6962.000,12.7464,
6961.000,12.7887,
6960.000,12.8326,
6959.000,12.879,
6958.000,12.9281,
6957.000,12.9788,
6956.000,13.0291,
6955.000,13.0776,
6954.000,13.1237,
6953.000,13.1696,
6952.000,13.2168,
6951.000,13.263,
6950.000,13.3027,
6949.000,13.3339,
6948.000,13.3599,
6947.000,13.3845,
6946.000,13.4076,
6945.000,13.4267,
6944.000,13.4422,
6943.000,13.4574,
6942.000,13.4748,
6941.000,13.494,
6940.000,13.5117,
6939.000,13.5246,
6938.000,13.5334,
6937.000,13.5431,
6936.000,13.5568,
6935.000,13.5718,
6934.000,13.5834,
6933.000,13.5907,
6932.000,13.5958,
6931.000,13.5974,
6930.000,13.5927,
6929.000,13.5842,
6928.000,13.5786,
6927.000,13.5781,
6926.000,13.5769,
6925.000,13.5701,
6924.000,13.5589,
6923.000,13.5465,
6922.000,13.5316,
6921.000,13.5112,
6920.000,13.4862,
6919.000,13.4617,
6918.000,13.4417,
6917.000,13.4263,
6916.000,13.4115,
6915.000,13.3912,
6914.000,13.3631,
6913.000,13.3312,
6912.000,13.2995,
6911.000,13.2655,
6910.000,13.2243,
6909.000,13.1781,
6908.000,13.1363,
6907.000,13.1036,
6906.000,13.0745,
6905.000,13.0433,
6904.000,13.0116,
6903.000,12.9821,
6902.000,12.951,
6901.000,12.9116,
6900.000,12.8628,
6899.000,12.8095,
6898.000,12.7566,
6897.000,12.7063,
6896.000,12.6591,
6895.000,12.6138,
6894.000,12.5686,
6893.000,12.524,
6892.000,12.4815,
6891.000,12.4396,
6890.000,12.3944,
6889.000,12.3459,
6888.000,12.2993,
6887.000,12.2572,
6886.000,12.215,
6885.000,12.1679,
6884.000,12.1174,
6883.000,12.0675,
6882.000,12.0178,
6881.000,11.9657,
6880.000,11.9121,
6879.000,11.8596,
6878.000,11.8069,
6877.000,11.7509,
6876.000,11.6931,
6875.000,11.6384,
6874.000,11.5889,
6873.000,11.541,
6872.000,11.4918,
6871.000,11.4425,
6870.000,11.3958,
6869.000,11.3504,
6868.000,11.3021,
6867.000,11.2488,
6866.000,11.193,
6865.000,11.1395,
6864.000,11.0904,
6863.000,11.0433,
6862.000,10.9944,
6861.000,10.9433,
6860.000,10.8919,
6859.000,10.8405,
6858.000,10.7879,
6857.000,10.7344,
6856.000,10.682,
6855.000,10.6314,
6854.000,10.5814,
6853.000,10.5316,
6852.000,10.4831,
6851.000,10.4348,
6850.000,10.3843,
6849.000,10.3317,
6848.000,10.2802,
6847.000,10.2318,
6846.000,10.1851,
6845.000,10.1382,
6844.000,10.0912,
6843.000,10.0437,
6842.000,9.99428,
6841.000,9.94307,
6840.000,9.89265,
6839.000,9.84406,
6838.000,9.79512,
6837.000,9.7441,
6836.000,9.69235,
6835.000,9.64178,
6834.000,9.59231,
6833.000,9.54368,
6832.000,9.49711,
6831.000,9.4526,
6830.000,9.40718,
6829.000,9.35847,
6828.000,9.30804,
6827.000,9.25913,
6826.000,9.21258,
6825.000,9.16724,
6824.000,9.12288,
6823.000,9.08027,
6822.000,9.03882,
6821.000,8.99608,
6820.000,8.95018,
6819.000,8.90202,
6818.000,8.85474,
6817.000,8.81053,
6816.000,8.76805,
6815.000,8.72427,
6814.000,8.67935,
6813.000,8.63748,
6812.000,8.60064,
6811.000,8.56412,
6810.000,8.52224,
6809.000,8.47689,
6808.000,8.43508,
6807.000,8.39836,
6806.000,8.36044,
6805.000,8.31627,
6804.000,8.2683,
6803.000,8.22191,
6802.000,8.17883,
6801.000,8.13746,
6800.000,8.09656,
6799.000,8.05572,
6798.000,8.01451,
6797.000,7.97357,
6796.000,7.9346,
6795.000,7.89806,
6794.000,7.863,
6793.000,7.82961,
6792.000,7.79889,
6791.000,7.76913,
6790.000,7.73616,
6789.000,7.69854,
6788.000,7.65891,
6787.000,7.61856,
6786.000,7.57444,
6785.000,7.52458,
6784.000,7.4729,
6783.000,7.42561,
6782.000,7.38524,
6781.000,7.35045,
6780.000,7.31923,
6779.000,7.28966,
6778.000,7.25976,
6777.000,7.22911,
6776.000,7.19883,
6775.000,7.16799,
6774.000,7.13268,
6773.000,7.09123,
6772.000,7.04759,
6771.000,7.00632,
6770.000,6.9668,
6769.000,6.92599,
6768.000,6.88491,
6767.000,6.84805,
6766.000,6.81692,
6765.000,6.7883,
6764.000,6.75921,
6763.000,6.73004,
6762.000,6.70117,
6761.000,6.6697,
6760.000,6.63228,
6759.000,6.59019,
6758.000,6.54905,
6757.000,6.51303,
6756.000,6.48059,
6755.000,6.44699,
6754.000,6.41063,
6753.000,6.37493,
6752.000,6.34339,
6751.000,6.31454,
6750.000,6.2842,
6749.000,6.25165,
6748.000,6.22092,
6747.000,6.19506,
6746.000,6.17135,
6745.000,6.14339,
6744.000,6.10695,
6743.000,6.06392,
6742.000,6.02125,
6741.000,5.98569,
6740.000,5.95808,
6739.000,5.9332,
6738.000,5.9065,
6737.000,5.87907,
6736.000,5.85347,
6735.000,5.8268,
6734.000,5.79295,
6733.000,5.75206,
6732.000,5.71229,
6731.000,5.68049,
6730.000,5.65505,
6729.000,5.6304,
6728.000,5.60462,
6727.000,5.57937,
6726.000,5.55473,
6725.000,5.52809,
6724.000,5.49776,
6723.000,5.46531,
6722.000,5.43386,
6721.000,5.40517,
6720.000,5.37813,
6719.000,5.34979,
6718.000,5.31866,
6717.000,5.28711,
6716.000,5.259,
6715.000,5.23513,
6714.000,5.21307,
6713.000,5.19103,
6712.000,5.16942,
6711.000,5.14798,
6710.000,5.12439,
6709.000,5.09745,
6708.000,5.06961,
6707.000,5.04448,
6706.000,5.02369,
6705.000,5.00714,
6704.000,4.99393,
6703.000,4.98153,
6702.000,4.96618,
6701.000,4.94632,
6700.000,4.92397,
6699.000,4.90136,
6698.000,4.87793,
6697.000,4.85338,
6696.000,4.82852,
6695.000,4.80431,
6694.000,4.77896,
6693.000,4.75001,
6692.000,4.71943,
6691.000,4.69221,
6690.000,4.67095,
6689.000,4.65354,
6688.000,4.63663,
6687.000,4.61948,
6686.000,4.60384,
6685.000,4.59134,
6684.000,4.58135,
6683.000,4.57131,
6682.000,4.55897,
6681.000,4.54437,
6680.000,4.52886,
6679.000,4.51226,
6678.000,4.49307,
6677.000,4.47188,
6676.000,4.45193,
6675.000,4.43482,
6674.000,4.41757,
6673.000,4.39655,
6672.000,4.3729,
6671.000,4.35137,
6670.000,4.3342,
6669.000,4.3195,
6668.000,4.30552,
6667.000,4.2937,
6666.000,4.28566,
6665.000,4.27932,
6664.000,4.27041,
6663.000,4.25727,
6662.000,4.24228,
6661.000,4.22856,
6660.000,4.21638,
6659.000,4.20377,
6658.000,4.18979,
6657.000,4.17593,
6656.000,4.16393,
6655.000,4.1535,
6654.000,4.14287,
6653.000,4.13071,
6652.000,4.11656,
6651.000,4.10015,
6650.000,4.08204,
6649.000,4.06444,
6648.000,4.05012,
6647.000,4.0402,
6646.000,4.03394,
6645.000,4.03011,
6644.000,4.02681,
6643.000,4.02053,
6642.000,4.00808,
6641.000,3.99053,
6640.000,3.97313,
6639.000,3.96051,
6638.000,3.95313,
6637.000,3.94909,
6636.000,3.94734,
6635.000,3.94751,
6634.000,3.94764,
6633.000,3.94417,
6632.000,3.93467,
6631.000,3.92004,
6630.000,3.904,
6629.000,3.8905,
6628.000,3.88095,
6627.000,3.87368,
6626.000,3.86655,
6625.000,3.85975,
6624.000,3.85527,
6623.000,3.8537,
6622.000,3.85295,
6621.000,3.85001,
6620.000,3.84322,
6619.000,3.83274,
6618.000,3.82032,
6617.000,3.80877,
6616.000,3.80032,
6615.000,3.7951,
6614.000,3.79192,
6613.000,3.79027,
6612.000,3.78994,
6611.000,3.78932,
6610.000,3.78633,
6609.000,3.7814,
6608.000,3.77741,
6607.000,3.77584,
6606.000,3.77522,
6605.000,3.77395,
6604.000,3.77261,
6603.000,3.77229,
6602.000,3.77243,
6601.000,3.77212,
6600.000,3.7719,
6599.000,3.77243,
6598.000,3.77228,
6597.000,3.76885,
6596.000,3.76117,
6595.000,3.75096,
6594.000,3.74144,
6593.000,3.73599,
6592.000,3.73704,
6591.000,3.74428,
6590.000,3.75414,
6589.000,3.76189,
6588.000,3.76469,
6587.000,3.76252,
6586.000,3.75696,
6585.000,3.7502,
6584.000,3.74504,
6583.000,3.74439,
6582.000,3.7497,
6581.000,3.75945,
6580.000,3.76976,
6579.000,3.77721,
6578.000,3.78112,
6577.000,3.78284,
6576.000,3.78341,
6575.000,3.78323,
6574.000,3.78399,
6573.000,3.78833,
6572.000,3.79631,
6571.000,3.80419,
6570.000,3.80871,
6569.000,3.81119,
6568.000,3.81502,
6567.000,3.82047,
6566.000,3.82502,
6565.000,3.82813,
6564.000,3.83237,
6563.000,3.8394,
6562.000,3.84783,
6561.000,3.85542,
6560.000,3.86134,
6559.000,3.86571,
6558.000,3.86937,
6557.000,3.87436,
6556.000,3.88262,
6555.000,3.89369,
6554.000,3.9057,
6553.000,3.91843,
6552.000,3.93242,
6551.000,3.94546,
6550.000,3.95385,
6549.000,3.95819,
6548.000,3.96417,
6547.000,3.97559,
6546.000,3.98988,
6545.000,4.00241,
6544.000,4.01236,
6543.000,4.02151,
6542.000,4.03001,
6541.000,4.03664,
6540.000,4.04199,
6539.000,4.04886,
6538.000,4.06013,
6537.000,4.07739,
6536.000,4.10008,
6535.000,4.12471,
6534.000,4.14696,
6533.000,4.16629,
6532.000,4.18637,
6531.000,4.20914,
6530.000,4.23109,
6529.000,4.24806,
6528.000,4.26139,
6527.000,4.27598,
6526.000,4.29346,
6525.000,4.31094,
6524.000,4.32591,
6523.000,4.33929,
6522.000,4.35349,
6521.000,4.36999,
6520.000,4.3891,
6519.000,4.41027,
6518.000,4.43224,
6517.000,4.45428,
6516.000,4.47717,
6515.000,4.50186,
6514.000,4.52777,
6513.000,4.55378,
6512.000,4.58015,
6511.000,4.60769,
6510.000,4.63549,
6509.000,4.66128,
6508.000,4.68425,
6507.000,4.70591,
6506.000,4.7281,
6505.000,4.7514,
6504.000,4.77573,
6503.000,4.80145,
6502.000,4.8296,
6501.000,4.8609,
6500.000,4.8946,
6499.000,4.92847,
6498.000,4.9609,
6497.000,4.99291,
6496.000,5.02651,
6495.000,5.06083,
6494.000,5.09194,
6493.000,5.11783,
6492.000,5.14175,
6491.000,5.16877,
6490.000,5.20028,
6489.000,5.23389,
6488.000,5.26771,
6487.000,5.30244,
6486.000,5.33903,
6485.000,5.37615,
6484.000,5.41112,
6483.000,5.44292,
6482.000,5.47384,
6481.000,5.50767,
6480.000,5.54593,
6479.000,5.58627,
6478.000,5.62528,
6477.000,5.66227,
6476.000,5.69895,
6475.000,5.73623,
6474.000,5.77329,
6473.000,5.81028,
6472.000,5.84932,
6471.000,5.89203,
6470.000,5.93756,
6469.000,5.98361,
6468.000,6.02796,
6467.000,6.06911,
6466.000,6.10746,
6465.000,6.14621,
6464.000,6.18886,
6463.000,6.23518,
6462.000,6.28209,
6461.000,6.32834,
6460.000,6.3755,
6459.000,6.42365,
6458.000,6.47025,
6457.000,6.51479,
6456.000,6.56098,
6455.000,6.61168,
6454.000,6.66448,
6453.000,6.71505,
6452.000,6.76215,
6451.000,6.80693,
6450.000,6.84991,
6449.000,6.89205,
6448.000,6.9364,
6447.000,6.98559,
6446.000,7.03879,
6445.000,7.09386,
6444.000,7.15074,
6443.000,7.21003,
6442.000,7.26978,
6441.000,7.32708,
6440.000,7.38196,
6439.000,7.43698,
6438.000,7.49372,
6437.000,7.55184,
6436.000,7.61066,
6435.000,7.6694,
6434.000,7.72654,
6433.000,7.78111,
6432.000,7.83388,
6431.000,7.88578,
6430.000,7.93681,
6429.000,7.98819,
6428.000,8.04345,
6427.000,8.10479,
6426.000,8.16991,
6425.000,8.23458,
6424.000,8.29691,
6423.000,8.35673,
6422.000,8.41293,
6421.000,8.46511,
6420.000,8.51682,
6419.000,8.57344,
6418.000,8.63703,
6417.000,8.70548,
6416.000,8.7759,
6415.000,8.84598,
6414.000,8.91274,
6413.000,8.97354,
6412.000,9.02893,
6411.000,9.08253,
6410.000,9.13783,
6409.000,9.19678,
6408.000,9.26036,
6407.000,9.32806,
6406.000,9.39696,
6405.000,9.46382,
6404.000,9.52829,
6403.000,9.59244,
6402.000,9.6568,
6401.000,9.71925,
6400.000,9.77789,
6399.000,9.83357,
6398.000,9.88883,
6397.000,9.94582,
6396.000,10.0056,
6395.000,10.0681,
6394.000,10.1326,
6393.000,10.1971,
6392.000,10.2594,
6391.000,10.3181,
6390.000,10.3735,
6389.000,10.4276,
6388.000,10.4823,
6387.000,10.5376,
6386.000,10.5923,
6385.000,10.645,
6384.000,10.6947,
6383.000,10.7405,
6382.000,10.7835,
6381.000,10.8268,
6380.000,10.8721,
6379.000,10.9177,
6378.000,10.9603,
6377.000,11.0007,
6376.000,11.0409,
6375.000,11.0802,
6374.000,11.1152,
6373.000,11.1464,
6372.000,11.1785,
6371.000,11.2138,
6370.000,11.2493,
6369.000,11.282,
6368.000,11.3126,
6367.000,11.3424,
6366.000,11.3699,
6365.000,11.3934,
6364.000,11.4133,
6363.000,11.4313,
6362.000,11.4477,
6361.000,11.4632,
6360.000,11.4785,
6359.000,11.4932,
6358.000,11.5055,
6357.000,11.5153,
6356.000,11.5242,
6355.000,11.5315,
6354.000,11.5338,
6353.000,11.5299,
6352.000,11.5224,
6351.000,11.5141,
6350.000,11.5055,
6349.000,11.4972,
6348.000,11.4905,
6347.000,11.4844,
6346.000,11.475,
6345.000,11.4606,
6344.000,11.4436,
6343.000,11.4259,
6342.000,11.4063,
6341.000,11.3836,
6340.000,11.3609,
6339.000,11.3402,
6338.000,11.3188,
6337.000,11.2922,
6336.000,11.2609,
6335.000,11.2295,
6334.000,11.2007,
6333.000,11.173,
6332.000,11.1436,
6331.000,11.1115,
6330.000,11.0775,
6329.000,11.0435,
6328.000,11.0105,
6327.000,10.9776,
6326.000,10.9431,
6325.000,10.9077,
6324.000,10.8732,
6323.000,10.8389,
6322.000,10.8019,
6321.000,10.7613,
6320.000,10.7201,
6319.000,10.6808,
6318.000,10.642,
6317.000,10.6005,
6316.000,10.5558,
6315.000,10.5093,
6314.000,10.4618,
6313.000,10.4141,
6312.000,10.3671,
6311.000,10.3214,
6310.000,10.2767,
6309.000,10.2322,
6308.000,10.187,
6307.000,10.1394,
6306.000,10.089,
6305.000,10.0383,
6304.000,9.99021,
6303.000,9.94463,
6302.000,9.89842,
6301.000,9.85019,
6300.000,9.80192,
6299.000,9.75585,
6298.000,9.71197,
6297.000,9.66929,
6296.000,9.62671,
6295.000,9.58229,
6294.000,9.53414,
6293.000,9.48286,
6292.000,9.43124,
6291.000,9.38126,
6290.000,9.33353,
6289.000,9.28901,
6288.000,9.24836,
6287.000,9.20926,
6286.000,9.16729,
6285.000,9.12045,
6284.000,9.07039,
6283.000,9.01957,
6282.000,8.96975,
6281.000,8.92292,
6280.000,8.88012,
6279.000,8.83902,
6278.000,8.79601,
6277.000,8.75104,
6276.000,8.70708,
6275.000,8.66455,
6274.000,8.62007,
6273.000,8.57162,
6272.000,8.52145,
6271.000,8.47253,
6270.000,8.4256,
6269.000,8.3809,
6268.000,8.3395,
6267.000,8.301,
6266.000,8.26271,
6265.000,8.2225,
6264.000,8.18021,
6263.000,8.13542,
6262.000,8.08717,
6261.000,8.03698,
6260.000,7.98888,
6259.000,7.94479,
6258.000,7.90261,
6257.000,7.86046,
6256.000,7.81985,
6255.000,7.78242,
6254.000,7.7462,
6253.000,7.70773,
6252.000,7.66618,
6251.000,7.62337,
6250.000,7.58093,
6249.000,7.5391,
6248.000,7.49729,
6247.000,7.45487,
6246.000,7.41208,
6245.000,7.37062,
6244.000,7.33195,
6243.000,7.29533,
6242.000,7.25923,
6241.000,7.22405,
6240.000,7.19086,
6239.000,7.15771,
6238.000,7.12066,
6237.000,7.07899,
6236.000,7.03622,
6235.000,6.99547,
6234.000,6.95671,
6233.000,6.91937,
6232.000,6.88387,
6231.000,6.8492,
6230.000,6.81256,
6229.000,6.77332,
6228.000,6.73441,
6227.000,6.69796,
6226.000,6.66243,
6225.000,6.62576,
6224.000,6.58842,
6223.000,6.55101,
6222.000,6.51183,
6221.000,6.46963,
6220.000,6.42659,
6219.000,6.38579,
6218.000,6.34748,
6217.000,6.31045,
6216.000,6.27537,
6215.000,6.24404,
6214.000,6.21611,
6213.000,6.18894,
6212.000,6.16014,
6211.000,6.12853,
6210.000,6.09376,
6209.000,6.05668,
6208.000,6.01936,
6207.000,5.98329,
6206.000,5.94825,
6205.000,5.91404,
6204.000,5.88163,
6203.000,5.85121,
6202.000,5.82038,
6201.000,5.78654,
6200.000,5.7502,
6199.000,5.7142,
6198.000,5.68036,
6197.000,5.64841,
6196.000,5.61755,
6195.000,5.58709,
6194.000,5.55624,
6193.000,5.52469,
6192.000,5.49342,
6191.000,5.46339,
6190.000,5.43386,
6189.000,5.40351,
6188.000,5.37268,
6187.000,5.34287,
6186.000,5.31376,
6185.000,5.28274,
6184.000,5.24811,
6183.000,5.21176,
6182.000,5.17776,
6181.000,5.14849,
6180.000,5.12301,
6179.000,5.09892,
6178.000,5.07483,
6177.000,5.05034,
6176.000,5.02436,
6175.000,4.995,
6174.000,4.96169,
6173.000,4.92637,
6172.000,4.89196,
6171.000,4.86022,
6170.000,4.83174,
6169.000,4.80709,
6168.000,4.7864,
6167.000,4.76828,
6166.000,4.75036,
6165.000,4.73078,
6164.000,4.70861,
6163.000,4.68342,
6162.000,4.65556,
6161.000,4.62665,
6160.000,4.59835,
6159.000,4.57093,
6158.000,4.54387,
6157.000,4.51724,
6156.000,4.49111,
6155.000,4.46448,
6154.000,4.43667,
6153.000,4.40928,
6152.000,4.38488,
6151.000,4.36371,
6150.000,4.34349,
6149.000,4.32265,
6148.000,4.30154,
6147.000,4.28033,
6146.000,4.25807,
6145.000,4.23461,
6144.000,4.21192,
6143.000,4.19176,
6142.000,4.17332,
6141.000,4.15418,
6140.000,4.1333,
6139.000,4.11165,
6138.000,4.09046,
6137.000,4.06975,
6136.000,4.04894,
6135.000,4.02855,
6134.000,4.01035,
6133.000,3.99517,
6132.000,3.98099,
6131.000,3.96453,
6130.000,3.945,
6129.000,3.92482,
6128.000,3.90603,
6127.000,3.88788,
6126.000,3.86922,
6125.000,3.85112,
6124.000,3.83481,
6123.000,3.81853,
6122.000,3.79917,
6121.000,3.77646,
6120.000,3.7532,
6119.000,3.73176,
6118.000,3.71291,
6117.000,3.69762,
6116.000,3.68705,
6115.000,3.67997,
6114.000,3.6726,
6113.000,3.66182,
6112.000,3.64694,
6111.000,3.62868,
6110.000,3.60838,
6109.000,3.58829,
6108.000,3.57048,
6107.000,3.55466,
6106.000,3.5393,
6105.000,3.52456,
6104.000,3.51204,
6103.000,3.50147,
6102.000,3.49045,
6101.000,3.47821,
6100.000,3.46675,
6099.000,3.45703,
6098.000,3.44676,
6097.000,3.4334,
6096.000,3.41731,
6095.000,3.4006,
6094.000,3.38459,
6093.000,3.37022,
6092.000,3.35885,
6091.000,3.3509,
6090.000,3.34452,
6089.000,3.33738,
6088.000,3.32876,
6087.000,3.31915,
6086.000,3.30874,
6085.000,3.29734,
6084.000,3.28483,
6083.000,3.27109,
6082.000,3.2566,
6081.000,3.24334,
6080.000,3.2333,
6079.000,3.2258,
6078.000,3.21821,
6077.000,3.20967,
6076.000,3.20141,
6075.000,3.19284,
6074.000,3.18096,
6073.000,3.16567,
6072.000,3.15241,
6071.000,3.14592,
6070.000,3.14369,
6069.000,3.13927,
6068.000,3.13018,
6067.000,3.11926,
6066.000,3.10876,
6065.000,3.09779,
6064.000,3.08625,
6063.000,3.07698,
6062.000,3.07204,
6061.000,3.06913,
6060.000,3.06396,
6059.000,3.05508,
6058.000,3.0448,
6057.000,3.03628,
6056.000,3.03094,
6055.000,3.02808,
6054.000,3.0258,
6053.000,3.02226,
6052.000,3.01661,
6051.000,3.00904,
6050.000,2.99986,
6049.000,2.98944,
6048.000,2.97879,
6047.000,2.96966,
6046.000,2.96313,
6045.000,2.95859,
6044.000,2.95442,
6043.000,2.94962,
6042.000,2.94466,
6041.000,2.94059,
6040.000,2.93772,
6039.000,2.93515,
6038.000,2.93167,
6037.000,2.92707,
6036.000,2.92228,
6035.000,2.91832,
6034.000,2.91536,
6033.000,2.91276,
6032.000,2.90958,
6031.000,2.90503,
6030.000,2.89888,
6029.000,2.89181,
6028.000,2.88521,
6027.000,2.8803,
6026.000,2.87747,
6025.000,2.87642,
6024.000,2.87643,
6023.000,2.87651,
6022.000,2.87588,
6021.000,2.87485,
6020.000,2.87463,
6019.000,2.87598,
6018.000,2.87825,
6017.000,2.88019,
6016.000,2.88125,
6015.000,2.88162,
6014.000,2.8815,
6013.000,2.88081,
6012.000,2.87965,
6011.000,2.87834,
6010.000,2.87705,
6009.000,2.87576,
6008.000,2.87482,
6007.000,2.87514,
6006.000,2.87735,
6005.000,2.88116,
6004.000,2.88554,
6003.000,2.88976,
6002.000,2.89384,
6001.000,2.8981,
6000.000,2.9027,
5999.000,2.90777,
5998.000,2.91337,
5997.000,2.91857,
5996.000,2.92134,
5995.000,2.92065,
5994.000,2.91866,
5993.000,2.9192,
5992.000,2.92382,
5991.000,2.9305,
5990.000,2.93692,
5989.000,2.94294,
5988.000,2.9487,
5987.000,2.95248,
5986.000,2.95283,
5985.000,2.95188,
5984.000,2.9536,
5983.000,2.95899,
5982.000,2.96571,
5981.000,2.97211,
5980.000,2.97905,
5979.000,2.98726,
5978.000,2.99547,
5977.000,3.00262,
5976.000,3.00941,
5975.000,3.01635,
5974.000,3.0222,
5973.000,3.02597,
5972.000,3.02914,
5971.000,3.03402,
5970.000,3.04083,
5969.000,3.04809,
5968.000,3.05499,
5967.000,3.06173,
5966.000,3.06786,
5965.000,3.07228,
5964.000,3.07506,
5963.000,3.07803,
5962.000,3.08317,
5961.000,3.09112,
5960.000,3.10117,
5959.000,3.11206,
5958.000,3.1224,
5957.000,3.13139,
5956.000,3.13953,
5955.000,3.1483,
5954.000,3.15895,
5953.000,3.17181,
5952.000,3.1864,
5951.000,3.20157,
5950.000,3.21568,
5949.000,3.22726,
5948.000,3.23624,
5947.000,3.24426,
5946.000,3.25371,
5945.000,3.26593,
5944.000,3.28043,
5943.000,3.29592,
5942.000,3.31208,
5941.000,3.32976,
5940.000,3.34941,
5939.000,3.36991,
5938.000,3.38982,
5937.000,3.40917,
5936.000,3.42895,
5935.000,3.44928,
5934.000,3.46905,
5933.000,3.48759,
5932.000,3.50555,
5931.000,3.52376,
5930.000,3.54243,
5929.000,3.56165,
5928.000,3.58201,
5927.000,3.60409,
5926.000,3.62805,
5925.000,3.65406,
5924.000,3.68235,
5923.000,3.71255,
5922.000,3.7439,
5921.000,3.77611,
5920.000,3.80909,
5919.000,3.84153,
5918.000,3.87117,
5917.000,3.89711,
5916.000,3.92113,
5915.000,3.94582,
5914.000,3.97214,
5913.000,3.99955,
5912.000,4.02776,
5911.000,4.05708,
5910.000,4.08768,
5909.000,4.11942,
5908.000,4.15256,
5907.000,4.18775,
5906.000,4.22502,
5905.000,4.26302,
5904.000,4.29966,
5903.000,4.33363,
5902.000,4.36539,
5901.000,4.39683,
5900.000,4.42973,
5899.000,4.46501,
5898.000,4.50303,
5897.000,4.54382,
5896.000,4.58627,
5895.000,4.62808,
5894.000,4.66745,
5893.000,4.70443,
5892.000,4.74002,
5891.000,4.77493,
5890.000,4.81023,
5889.000,4.8481,
5888.000,4.89002,
5887.000,4.93476,
5886.000,4.9798,
5885.000,5.02412,
5884.000,5.06829,
5883.000,5.1122,
5882.000,5.15544,
5881.000,5.19919,
5880.000,5.24534,
5879.000,5.29326,
5878.000,5.33983,
5877.000,5.38322,
5876.000,5.42451,
5875.000,5.46535,
5874.000,5.50631,
5873.000,5.54858,
5872.000,5.59427,
5871.000,5.64361,
5870.000,5.69345,
5869.000,5.74072,
5868.000,5.78578,
5867.000,5.83146,
5866.000,5.87997,
5865.000,5.93199,
5864.000,5.98719,
5863.000,6.04398,
5862.000,6.09982,
5861.000,6.15285,
5860.000,6.20328,
5859.000,6.25263,
5858.000,6.30292,
5857.000,6.35653,
5856.000,6.41472,
5855.000,6.47541,
5854.000,6.53419,
5853.000,6.58849,
5852.000,6.63955,
5851.000,6.6896,
5850.000,6.73934,
5849.000,6.78938,
5848.000,6.84173,
5847.000,6.89777,
5846.000,6.9561,
5845.000,7.01424,
5844.000,7.07177,
5843.000,7.1301,
5842.000,7.19004,
5841.000,7.25125,
5840.000,7.31332,
5839.000,7.37593,
5838.000,7.43819,
5837.000,7.499,
5836.000,7.55794,
5835.000,7.61519,
5834.000,7.67115,
5833.000,7.72659,
5832.000,7.78275,
5831.000,7.84073,
5830.000,7.90102,
5829.000,7.96351,
5828.000,8.02709,
5827.000,8.08973,
5826.000,8.14995,
5825.000,8.20849,
5824.000,8.26722,
5823.000,8.32694,
5822.000,8.38742,
5821.000,8.44886,
5820.000,8.51125,
5819.000,8.57259,
5818.000,8.63022,
5817.000,8.68412,
5816.000,8.73673,
5815.000,8.78949,
5814.000,8.84227,
5813.000,8.89597,
5812.000,8.95249,
5811.000,9.01126,
5810.000,9.0688,
5809.000,9.12299,
5808.000,9.17524,
5807.000,9.22712,
5806.000,9.27785,
5805.000,9.32666,
5804.000,9.37488,
5803.000,9.42359,
5802.000,9.47138,
5801.000,9.51627,
5800.000,9.55843,
5799.000,9.59916,
5798.000,9.63924,
5797.000,9.6794,
5796.000,9.72077,
5795.000,9.76288,
5794.000,9.80296,
5793.000,9.83881,
5792.000,9.87095,
5791.000,9.90063,
5790.000,9.92766,
5789.000,9.952,
5788.000,9.97554,
5787.000,10.0001,
5786.000,10.0246,
5785.000,10.0462,
5784.000,10.0634,
5783.000,10.0768,
5782.000,10.0871,
5781.000,10.0944,
5780.000,10.0996,
5779.000,10.103,
5778.000,10.1043,
5777.000,10.1034,
5776.000,10.1011,
5775.000,10.0988,
5774.000,10.097,
5773.000,10.0952,
5772.000,10.0918,
5771.000,10.0846,
5770.000,10.0721,
5769.000,10.0545,
5768.000,10.0332,
5767.000,10.0095,
5766.000,9.98406,
5765.000,9.95776,
5764.000,9.93146,
5763.000,9.90453,
5762.000,9.87567,
5761.000,9.84496,
5760.000,9.81385,
5759.000,9.78292,
5758.000,9.75113,
5757.000,9.71722,
5756.000,9.68066,
5755.000,9.64147,
5754.000,9.60054,
5753.000,9.55993,
5752.000,9.5211,
5751.000,9.48304,
5750.000,9.44363,
5749.000,9.40275,
5748.000,9.3621,
5747.000,9.32217,
5746.000,9.2816,
5745.000,9.23948,
5744.000,9.19637,
5743.000,9.15261,
5742.000,9.10759,
5741.000,9.0613,
5740.000,9.01485,
5739.000,8.9692,
5738.000,8.92466,
5737.000,8.88155,
5736.000,8.84003,
5735.000,8.79914,
5734.000,8.75757,
5733.000,8.71525,
5732.000,8.67264,
5731.000,8.62895,
5730.000,8.58303,
5729.000,8.53594,
5728.000,8.49009,
5727.000,8.44578,
5726.000,8.40093,
5725.000,8.35447,
5724.000,8.30772,
5723.000,8.26177,
5722.000,8.21576,
5721.000,8.16883,
5720.000,8.12179,
5719.000,8.07566,
5718.000,8.03027,
5717.000,7.98559,
5716.000,7.94289,
5715.000,7.90292,
5714.000,7.86405,
5713.000,7.82353,
5712.000,7.78049,
5711.000,7.73659,
5710.000,7.6939,
5709.000,7.65302,
5708.000,7.61315,
5707.000,7.57348,
5706.000,7.53418,
5705.000,7.49598,
5704.000,7.4591,
5703.000,7.42317,
5702.000,7.38812,
5701.000,7.35395,
5700.000,7.3193,
5699.000,7.28166,
5698.000,7.23983,
5697.000,7.19539,
5696.000,7.15086,
5695.000,7.10717,
5694.000,7.06451,
5693.000,7.02352,
5692.000,6.98548,
5691.000,6.95014,
5690.000,6.9161,
5689.000,6.88253,
5688.000,6.84835,
5687.000,6.81184,
5686.000,6.7721,
5685.000,6.73067,
5684.000,6.6899,
5683.000,6.6506,
5682.000,6.61261,
5681.000,6.57641,
5680.000,6.54206,
5679.000,6.50756,
5678.000,6.47055,
5677.000,6.43158,
5676.000,6.3935,
5675.000,6.35768,
5674.000,6.32282,
5673.000,6.28708,
5672.000,6.24972,
5671.000,6.2106,
5670.000,6.17027,
5669.000,6.13042,
5668.000,6.09257,
5667.000,6.05621,
5666.000,6.01953,
5665.000,5.98173,
5664.000,5.94319,
5663.000,5.90423,
5662.000,5.86542,
5661.000,5.82826,
5660.000,5.79363,
5659.000,5.75976,
5658.000,5.7242,
5657.000,5.68746,
5656.000,5.65218,
5655.000,5.61904,
5654.000,5.58602,
5653.000,5.55171,
5652.000,5.51678,
5651.000,5.48171,
5650.000,5.44592,
5649.000,5.40992,
5648.000,5.37574,
5647.000,5.34421,
5646.000,5.31357,
5645.000,5.28205,
5644.000,5.24988,
5643.000,5.21776,
5642.000,5.1851,
5641.000,5.15117,
5640.000,5.11652,
5639.000,5.08207,
5638.000,5.04795,
5637.000,5.01403,
5636.000,4.98062,
5635.000,4.94778,
5634.000,4.915,
5633.000,4.88236,
5632.000,4.85083,
5631.000,4.82091,
5630.000,4.79199,
5629.000,4.7634,
5628.000,4.73496,
5627.000,4.70586,
5626.000,4.67474,
5625.000,4.64153,
5624.000,4.6081,
5623.000,4.57621,
5622.000,4.54584,
5621.000,4.51643,
5620.000,4.48829,
5619.000,4.46177,
5618.000,4.43588,
5617.000,4.40916,
5616.000,4.38116,
5615.000,4.35251,
5614.000,4.32378,
5613.000,4.29523,
5612.000,4.26705,
5611.000,4.23907,
5610.000,4.21088,
5609.000,4.18259,
5608.000,4.15497,
5607.000,4.12842,
5606.000,4.10242,
5605.000,4.07638,
5604.000,4.05023,
5603.000,4.02376,
5602.000,3.99643,
5601.000,3.96858,
5600.000,3.94176,
5599.000,3.91687,
5598.000,3.89281,
5597.000,3.86785,
5596.000,3.84183,
5595.000,3.81584,
5594.000,3.79027,
5593.000,3.76471,
5592.000,3.73938,
5591.000,3.71552,
5590.000,3.69391,
5589.000,3.67396,
5588.000,3.65465,
5587.000,3.63563,
5586.000,3.61666,
5585.000,3.59659,
5584.000,3.57386,
5583.000,3.54815,
5582.000,3.52098,
5581.000,3.4944,
5580.000,3.46942,
5579.000,3.44601,
5578.000,3.42416,
5577.000,3.40422,
5576.000,3.38605,
5575.000,3.36855,
5574.000,3.35057,
5573.000,3.33203,
5572.000,3.31345,
5571.000,3.29485,
5570.000,3.27575,
5569.000,3.25618,
5568.000,3.23704,
5567.000,3.2193,
5566.000,3.20304,
5565.000,3.18733,
5564.000,3.17079,
5563.000,3.1524,
5562.000,3.13229,
5561.000,3.11186,
5560.000,3.0928,
5559.000,3.07584,
5558.000,3.06043,
5557.000,3.0453,
5556.000,3.02925,
5555.000,3.01193,
5554.000,2.99409,
5553.000,2.97716,
5552.000,2.96208,
5551.000,2.94868,
5550.000,2.93617,
5549.000,2.92359,
5548.000,2.9097,
5547.000,2.89316,
5546.000,2.87386,
5545.000,2.85355,
5544.000,2.83459,
5543.000,2.81813,
5542.000,2.8042,
5541.000,2.7927,
5540.000,2.78309,
5539.000,2.77346,
5538.000,2.76151,
5537.000,2.74689,
5536.000,2.73158,
5535.000,2.71748,
5534.000,2.70453,
5533.000,2.69166,
5532.000,2.67871,
5531.000,2.66655,
5530.000,2.65572,
5529.000,2.64573,
5528.000,2.63579,
5527.000,2.62566,
5526.000,2.61534,
5525.000,2.60423,
5524.000,2.59114,
5523.000,2.57537,
5522.000,2.55782,
5521.000,2.54066,
5520.000,2.52588,
5519.000,2.51422,
5518.000,2.50525,
5517.000,2.49792,
5516.000,2.49082,
5515.000,2.48257,
5514.000,2.47246,
5513.000,2.46089,
5512.000,2.44897,
5511.000,2.43774,
5510.000,2.42759,
5509.000,2.41802,
5508.000,2.40798,
5507.000,2.39694,
5506.000,2.38545,
5505.000,2.37421,
5504.000,2.36299,
5503.000,2.35137,
5502.000,2.34002,
5501.000,2.33008,
5500.000,2.32117,
5499.000,2.31169,
5498.000,2.30132,
5497.000,2.29169,
5496.000,2.28385,
5495.000,2.27657,
5494.000,2.26823,
5493.000,2.2591,
5492.000,2.25017,
5491.000,2.24106,
5490.000,2.23087,
5489.000,2.22006,
5488.000,2.20983,
5487.000,2.19998,
5486.000,2.18955,
5485.000,2.17921,
5484.000,2.17077,
5483.000,2.1642,
5482.000,2.15708,
5481.000,2.14769,
5480.000,2.13718,
5479.000,2.12795,
5478.000,2.12118,
5477.000,2.11641,
5476.000,2.11228,
5475.000,2.10684,
5474.000,2.09832,
5473.000,2.08689,
5472.000,2.07488,
5471.000,2.06477,
5470.000,2.05723,
5469.000,2.05139,
5468.000,2.04616,
5467.000,2.04066,
5466.000,2.03413,
5465.000,2.02622,
5464.000,2.01746,
5463.000,2.0086,
5462.000,1.9999,
5461.000,1.99129,
5460.000,1.98325,
5459.000,1.97682,
5458.000,1.97279,
5457.000,1.97075,
5456.000,1.96899,
5455.000,1.96558,
5454.000,1.95969,
5453.000,1.95197,
5452.000,1.94361,
5451.000,1.93531,
5450.000,1.92758,
5449.000,1.92143,
5448.000,1.91779,
5447.000,1.91603,
5446.000,1.91402,
5445.000,1.91017,
5444.000,1.90485,
5443.000,1.89931,
5442.000,1.89379,
5441.000,1.88759,
5440.000,1.88081,
5439.000,1.87466,
5438.000,1.87023,
5437.000,1.86737,
5436.000,1.8652,
5435.000,1.86324,
5434.000,1.86162,
5433.000,1.86019,
5432.000,1.85806,
5431.000,1.85445,
5430.000,1.8495,
5429.000,1.84406,
5428.000,1.83891,
5427.000,1.83455,
5426.000,1.83169,
5425.000,1.83117,
5424.000,1.83266,
5423.000,1.83438,
5422.000,1.83483,
5421.000,1.83438,
5420.000,1.83426,
5419.000,1.83474,
5418.000,1.83532,
5417.000,1.83612,
5416.000,1.83754,
5415.000,1.8388,
5414.000,1.83823,
5413.000,1.83553,
5412.000,1.83276,
5411.000,1.8322,
5410.000,1.83414,
5409.000,1.83735,
5408.000,1.84089,
5407.000,1.84459,
5406.000,1.84848,
5405.000,1.85274,
5404.000,1.85793,
5403.000,1.86443,
5402.000,1.87167,
5401.000,1.87834,
5400.000,1.88382,
5399.000,1.88884,
5398.000,1.89455,
5397.000,1.90117,
5396.000,1.90811,
5395.000,1.91484,
5394.000,1.92123,
5393.000,1.92722,
5392.000,1.93275,
5391.000,1.93812,
5390.000,1.9441,
5389.000,1.95138,
5388.000,1.96003,
5387.000,1.96955,
5386.000,1.97969,
5385.000,1.99067,
5384.000,2.0024,
5383.000,2.01434,
5382.000,2.02613,
5381.000,2.03785,
5380.000,2.04977,
5379.000,2.06191,
5378.000,2.07409,
5377.000,2.08635,
5376.000,2.09871,
5375.000,2.11093,
5374.000,2.12304,
5373.000,2.13557,
5372.000,2.14887,
5371.000,2.16264,
5370.000,2.1764,
5369.000,2.19047,
5368.000,2.20556,
5367.000,2.22163,
5366.000,2.238,
5365.000,2.25481,
5364.000,2.27282,
5363.000,2.29179,
5362.000,2.31046,
5361.000,2.32843,
5360.000,2.3469,
5359.000,2.36699,
5358.000,2.38845,
5357.000,2.41046,
5356.000,2.43268,
5355.000,2.45457,
5354.000,2.47481,
5353.000,2.49273,
5352.000,2.50969,
5351.000,2.52792,
5350.000,2.54847,
5349.000,2.57119,
5348.000,2.59617,
5347.000,2.62357,
5346.000,2.65241,
5345.000,2.68055,
5344.000,2.70633,
5343.000,2.72988,
5342.000,2.75289,
5341.000,2.77678,
5340.000,2.80105,
5339.000,2.82393,
5338.000,2.84447,
5337.000,2.86425,
5336.000,2.8866,
5335.000,2.91376,
5334.000,2.94501,
5333.000,2.97782,
5332.000,3.01033,
5331.000,3.04227,
5330.000,3.07393,
5329.000,3.10562,
5328.000,3.13785,
5327.000,3.17073,
5326.000,3.20349,
5325.000,3.23555,
5324.000,3.26759,
5323.000,3.30033,
5322.000,3.3331,
5321.000,3.36484,
5320.000,3.39591,
5319.000,3.42785,
5318.000,3.46151,
5317.000,3.49667,
5316.000,3.53314,
5315.000,3.57082,
5314.000,3.609,
5313.000,3.64689,
5312.000,3.68474,
5311.000,3.72348,
5310.000,3.76332,
5309.000,3.80341,
5308.000,3.84289,
5307.000,3.88161,
5306.000,3.92001,
5305.000,3.95888,
5304.000,3.99928,
5303.000,4.0418,
5302.000,4.08584,
5301.000,4.12983,
5300.000,4.1724,
5299.000,4.2131,
5298.000,4.2522,
5297.000,4.29054,
5296.000,4.32955,
5295.000,4.37072,
5294.000,4.41497,
5293.000,4.46212,
5292.000,4.51079,
5291.000,4.55895,
5290.000,4.60527,
5289.000,4.65024,
5288.000,4.69569,
5287.000,4.74274,
5286.000,4.79083,
5285.000,4.83892,
5284.000,4.88678,
5283.000,4.93486,
5282.000,4.9836,
5281.000,5.03305,
5280.000,5.08297,
5279.000,5.13276,
5278.000,5.18219,
5277.000,5.23201,
5276.000,5.2832,
5275.000,5.33535,
5274.000,5.38686,
5273.000,5.43727,
5272.000,5.48816,
5271.000,5.5412,
5270.000,5.59636,
5269.000,5.65254,
5268.000,5.70866,
5267.000,5.76383,
5266.000,5.81747,
5265.000,5.8702,
5264.000,5.9236,
5263.000,5.9783,
5262.000,6.03345,
5261.000,6.08859,
5260.000,6.14468,
5259.000,6.20239,
5258.000,6.26103,
5257.000,6.31984,
5256.000,6.37888,
5255.000,6.43801,
5254.000,6.49579,
5253.000,6.55152,
5252.000,6.60714,
5251.000,6.66475,
5250.000,6.72379,
5249.000,6.78208,
5248.000,6.83873,
5247.000,6.89489,
5246.000,6.95221,
5245.000,7.0114,
5244.000,7.07155,
5243.000,7.1304,
5242.000,7.18655,
5241.000,7.2414,
5240.000,7.29746,
5239.000,7.35495,
5238.000,7.41162,
5237.000,7.46609,
5236.000,7.51949,
5235.000,7.57322,
5234.000,7.62697,
5233.000,7.67973,
5232.000,7.73137,
5231.000,7.78204,
5230.000,7.83126,
5229.000,7.87886,
5228.000,7.92617,
5227.000,7.97458,
5226.000,8.02341,
5225.000,8.07047,
5224.000,8.11473,
5223.000,8.15698,
5222.000,8.19792,
5221.000,8.23723,
5220.000,8.27461,
5219.000,8.31051,
5218.000,8.34538,
5217.000,8.37915,
5216.000,8.41113,
5215.000,8.44013,
5214.000,8.46529,
5213.000,8.48694,
5212.000,8.50658,
5211.000,8.52543,
5210.000,8.54371,
5209.000,8.56134,
5208.000,8.57859,
5207.000,8.59501,
5206.000,8.60889,
5205.000,8.61894,
5204.000,8.62568,
5203.000,8.63032,
5202.000,8.63312,
5201.000,8.63326,
5200.000,8.62999,
5199.000,8.62369,
5198.000,8.61544,
5197.000,8.6057,
5196.000,8.59443,
5195.000,8.58173,
5194.000,8.56778,
5193.000,8.55232,
5192.000,8.53463,
5191.000,8.5141,
5190.000,8.4908,
5189.000,8.46562,
5188.000,8.43955,
5187.000,8.41277,
5186.000,8.38503,
5185.000,8.35647,
5184.000,8.32742,
5183.000,8.29755,
5182.000,8.26612,
5181.000,8.23316,
5180.000,8.19953,
5179.000,8.16577,
5178.000,8.13166,
5177.000,8.09656,
5176.000,8.05988,
5175.000,8.02107,
5174.000,7.98018,
5173.000,7.93858,
5172.000,7.89828,
5171.000,7.86006,
5170.000,7.8228,
5169.000,7.78467,
5168.000,7.74447,
5167.000,7.70196,
5166.000,7.65784,
5165.000,7.61348,
5164.000,7.56999,
5163.000,7.52721,
5162.000,7.48401,
5161.000,7.43958,
5160.000,7.39386,
5159.000,7.34716,
5158.000,7.30023,
5157.000,7.25459,
5156.000,7.21145,
5155.000,7.17005,
5154.000,7.12807,
5153.000,7.08409,
5152.000,7.03904,
5151.000,6.99469,
5150.000,6.95177,
5149.000,6.90994,
5148.000,6.86853,
5147.000,6.82677,
5146.000,6.78402,
5145.000,6.74043,
5144.000,6.69702,
5143.000,6.65462,
5142.000,6.61283,
5141.000,6.57059,
5140.000,6.52734,
5139.000,6.48339,
5138.000,6.43947,
5137.000,6.39614,
5136.000,6.35369,
5135.000,6.31236,
5134.000,6.27224,
5133.000,6.23286,
5132.000,6.19303,
5131.000,6.15165,
5130.000,6.1089,
5129.000,6.0662,
5128.000,6.0248,
5127.000,5.98477,
5126.000,5.94555,
5125.000,5.90689,
5124.000,5.86866,
5123.000,5.83045,
5122.000,5.79195,
5121.000,5.75346,
5120.000,5.71513,
5119.000,5.67633,
5118.000,5.63644,
5117.000,5.59589,
5116.000,5.55572,
5115.000,5.51633,
5114.000,5.47744,
5113.000,5.43905,
5112.000,5.40151,
5111.000,5.36472,
5110.000,5.32802,
5109.000,5.29101,
5108.000,5.25375,
5107.000,5.21631,
5106.000,5.17855,
5105.000,5.14062,
5104.000,5.10288,
5103.000,5.06556,
5102.000,5.02881,
5101.000,4.99292,
5100.000,4.95807,
5099.000,4.92397,
5098.000,4.89021,
5097.000,4.85675,
5096.000,4.82334,
5095.000,4.78899,
5094.000,4.75266,
5093.000,4.71452,
5092.000,4.67584,
5091.000,4.63791,
5090.000,4.6016,
5089.000,4.56751,
5088.000,4.53552,
5087.000,4.50444,
5086.000,4.47275,
5085.000,4.44013,
5084.000,4.40736,
5083.000,4.37502,
5082.000,4.34285,
5081.000,4.31045,
5080.000,4.27766,
5079.000,4.2444,
5078.000,4.21073,
5077.000,4.1775,
5076.000,4.1459,
5075.000,4.11627,
5074.000,4.08772,
5073.000,4.05911,
5072.000,4.03002,
5071.000,4.00056,
5070.000,3.97101,
5069.000,3.94169,
5068.000,3.91282,
5067.000,3.88417,
5066.000,3.85517,
5065.000,3.82565,
5064.000,3.79593,
5063.000,3.76627,
5062.000,3.7365,
5061.000,3.70653,
5060.000,3.67673,
5059.000,3.64775,
5058.000,3.62004,
5057.000,3.59364,
5056.000,3.56821,
5055.000,3.54307,
5054.000,3.51756,
5053.000,3.49148,
5052.000,3.46512,
5051.000,3.43881,
5050.000,3.4127,
5049.000,3.38674,
5048.000,3.36076,
5047.000,3.33458,
5046.000,3.3083,
5045.000,3.28231,
5044.000,3.25688,
5043.000,3.23192,
5042.000,3.20733,
5041.000,3.18339,
5040.000,3.16042,
5039.000,3.13824,
5038.000,3.1162,
5037.000,3.09382,
5036.000,3.07109,
5035.000,3.04826,
5034.000,3.02566,
5033.000,3.0035,
5032.000,2.98167,
5031.000,2.95979,
5030.000,2.93774,
5029.000,2.916,
5028.000,2.89524,
5027.000,2.87563,
5026.000,2.85661,
5025.000,2.83731,
5024.000,2.81709,
5023.000,2.79583,
5022.000,2.77405,
5021.000,2.75267,
5020.000,2.73233,
5019.000,2.71309,
5018.000,2.69462,
5017.000,2.67655,
5016.000,2.65844,
5015.000,2.64004,
5014.000,2.62169,
5013.000,2.60412,
5012.000,2.58755,
5011.000,2.57134,
5010.000,2.55466,
5009.000,2.53737,
5008.000,2.5198,
5007.000,2.50234,
5006.000,2.48553,
5005.000,2.4701,
5004.000,2.45631,
5003.000,2.44336,
5002.000,2.42995,
5001.000,2.41518,
5000.000,2.39883,
4999.000,2.38115,
4998.000,2.3631,
4997.000,2.3462,
4996.000,2.33158,
4995.000,2.3191,
4994.000,2.30741,
4993.000,2.29531,
4992.000,2.28249,
4991.000,2.26919,
4990.000,2.25576,
4989.000,2.24242,
4988.000,2.22912,
4987.000,2.21549,
4986.000,2.20131,
4985.000,2.18693,
4984.000,2.17303,
4983.000,2.16024,
4982.000,2.14884,
4981.000,2.13879,
4980.000,2.1295,
4979.000,2.11987,
4978.000,2.10897,
4977.000,2.09659,
4976.000,2.08307,
4975.000,2.06887,
4974.000,2.05456,
4973.000,2.04081,
4972.000,2.02796,
4971.000,2.01569,
4970.000,2.00361,
4969.000,1.99172,
4968.000,1.98021,
4967.000,1.96913,
4966.000,1.95855,
4965.000,1.94871,
4964.000,1.93943,
4963.000,1.92973,
4962.000,1.91874,
4961.000,1.90669,
4960.000,1.89465,
4959.000,1.8833,
4958.000,1.87273,
4957.000,1.86295,
4956.000,1.85392,
4955.000,1.84508,
4954.000,1.83553,
4953.000,1.82483,
4952.000,1.81309,
4951.000,1.80046,
4950.000,1.78718,
4949.000,1.77414,
4948.000,1.76248,
4947.000,1.75251,
4946.000,1.74352,
4945.000,1.73474,
4944.000,1.72598,
4943.000,1.71737,
4942.000,1.70878,
4941.000,1.69998,
4940.000,1.69079,
4939.000,1.68107,
4938.000,1.67084,
4937.000,1.66051,
4936.000,1.65042,
4935.000,1.64024,
4934.000,1.62929,
4933.000,1.6176,
4932.000,1.60614,
4931.000,1.59593,
4930.000,1.58721,
4929.000,1.57956,
4928.000,1.57232,
4927.000,1.56477,
4926.000,1.55646,
4925.000,1.54758,
4924.000,1.53862,
4923.000,1.52959,
4922.000,1.51991,
4921.000,1.5093,
4920.000,1.49837,
4919.000,1.48811,
4918.000,1.47909,
4917.000,1.47138,
4916.000,1.46472,
4915.000,1.45836,
4914.000,1.45125,
4913.000,1.44282,
4912.000,1.43357,
4911.000,1.42445,
4910.000,1.41591,
4909.000,1.40773,
4908.000,1.3995,
4907.000,1.39086,
4906.000,1.38163,
4905.000,1.37193,
4904.000,1.36236,
4903.000,1.35369,
4902.000,1.3462,
4901.000,1.3395,
4900.000,1.33288,
4899.000,1.32576,
4898.000,1.31793,
4897.000,1.30969,
4896.000,1.30179,
4895.000,1.29499,
4894.000,1.28962,
4893.000,1.28543,
4892.000,1.28175,
4891.000,1.27779,
4890.000,1.27292,
4889.000,1.26695,
4888.000,1.26005,
4887.000,1.25245,
4886.000,1.24438,
4885.000,1.23624,
4884.000,1.22867,
4883.000,1.22224,
4882.000,1.21723,
4881.000,1.21363,
4880.000,1.21093,
4879.000,1.20812,
4878.000,1.20414,
4877.000,1.19882,
4876.000,1.19307,
4875.000,1.18799,
4874.000,1.18385,
4873.000,1.18007,
4872.000,1.17608,
4871.000,1.17171,
4870.000,1.16711,
4869.000,1.16248,
4868.000,1.1582,
4867.000,1.15469,
4866.000,1.15202,
4865.000,1.15,
4864.000,1.14841,
4863.000,1.14718,
4862.000,1.14601,
4861.000,1.14442,
4860.000,1.14229,
4859.000,1.14015,
4858.000,1.13858,
4857.000,1.13757,
4856.000,1.1367,
4855.000,1.13574,
4854.000,1.13484,
4853.000,1.13407,
4852.000,1.13333,
4851.000,1.13267,
4850.000,1.13252,
4849.000,1.13324,
4848.000,1.13472,
4847.000,1.13659,
4846.000,1.13846,
4845.000,1.1399,
4844.000,1.14037,
4843.000,1.13966,
4842.000,1.1382,
4841.000,1.1369,
4840.000,1.13643,
4839.000,1.13707,
4838.000,1.13895,
4837.000,1.14217,
4836.000,1.14627,
4835.000,1.15015,
4834.000,1.15282,
4833.000,1.15428,
4832.000,1.15546,
4831.000,1.15741,
4830.000,1.16063,
4829.000,1.16497,
4828.000,1.16984,
4827.000,1.1746,
4826.000,1.17903,
4825.000,1.1835,
4824.000,1.1885,
4823.000,1.19407,
4822.000,1.19977,
4821.000,1.20512,
4820.000,1.20998,
4819.000,1.21453,
4818.000,1.21911,
4817.000,1.2241,
4816.000,1.2297,
4815.000,1.23575,
4814.000,1.24189,
4813.000,1.24798,
4812.000,1.25438,
4811.000,1.26165,
4810.000,1.27003,
4809.000,1.27922,
4808.000,1.28854,
4807.000,1.29735,
4806.000,1.30529,
4805.000,1.31252,
4804.000,1.31955,
4803.000,1.32702,
4802.000,1.33549,
4801.000,1.34534,
4800.000,1.35667,
4799.000,1.36931,
4798.000,1.38282,
4797.000,1.39653,
4796.000,1.40967,
4795.000,1.42148,
4794.000,1.43167,
4793.000,1.44077,
4792.000,1.44999,
4791.000,1.46055,
4790.000,1.47294,
4789.000,1.48667,
4788.000,1.50065,
4787.000,1.51403,
4786.000,1.52666,
4785.000,1.53908,
4784.000,1.55191,
4783.000,1.56541,
4782.000,1.57969,
4781.000,1.595,
4780.000,1.61155,
4779.000,1.62913,
4778.000,1.64695,
4777.000,1.66416,
4776.000,1.68038,
4775.000,1.69574,
4774.000,1.71086,
4773.000,1.72665,
4772.000,1.74402,
4771.000,1.76326,
4770.000,1.78379,
4769.000,1.80455,
4768.000,1.82481,
4767.000,1.84463,
4766.000,1.8648,
4765.000,1.88618,
4764.000,1.90898,
4763.000,1.93253,
4762.000,1.95573,
4761.000,1.97804,
4760.000,1.99984,
4759.000,2.02194,
4758.000,2.0448,
4757.000,2.06828,
4756.000,2.09209,
4755.000,2.11611,
4754.000,2.14033,
4753.000,2.16463,
4752.000,2.18886,
4751.000,2.21311,
4750.000,2.23772,
4749.000,2.26297,
4748.000,2.28885,
4747.000,2.31514,
4746.000,2.3418,
4745.000,2.36917,
4744.000,2.39779,
4743.000,2.42785,
4742.000,2.45895,
4741.000,2.49028,
4740.000,2.52121,
4739.000,2.55185,
4738.000,2.58282,
4737.000,2.61451,
4736.000,2.64661,
4735.000,2.67847,
4734.000,2.70994,
4733.000,2.74153,
4732.000,2.77371,
4731.000,2.80647,
4730.000,2.83951,
4729.000,2.87278,
4728.000,2.90659,
4727.000,2.94136,
4726.000,2.97721,
4725.000,3.01375,
4724.000,3.05026,
4723.000,3.08649,
4722.000,3.12311,
4721.000,3.16112,
4720.000,3.20049,
4719.000,3.23996,
4718.000,3.27833,
4717.000,3.31567,
4716.000,3.35313,
4715.000,3.39182,
4714.000,3.43217,
4713.000,3.4739,
4712.000,3.51637,
4711.000,3.55911,
4710.000,3.6023,
4709.000,3.64649,
4708.000,3.69149,
4707.000,3.73603,
4706.000,3.77906,
4705.000,3.82116,
4704.000,3.86413,
4703.000,3.90941,
4702.000,3.95703,
4701.000,4.00587,
4700.000,4.05423,
4699.000,4.10073,
4698.000,4.14525,
4697.000,4.18916,
4696.000,4.234,
4695.000,4.28014,
4694.000,4.32691,
4693.000,4.37385,
4692.000,4.42103,
4691.000,4.46841,
4690.000,4.51556,
4689.000,4.56219,
4688.000,4.60846,
4687.000,4.65473,
4686.000,4.70141,
4685.000,4.749,
4684.000,4.79777,
4683.000,4.84741,
4682.000,4.89738,
4681.000,4.94752,
4680.000,4.9979,
4679.000,5.04833,
4678.000,5.09849,
4677.000,5.14866,
4676.000,5.19951,
4675.000,5.25132,
4674.000,5.30374,
4673.000,5.35623,
4672.000,5.40832,
4671.000,5.45977,
4670.000,5.51098,
4669.000,5.56313,
4668.000,5.61721,
4667.000,5.67291,
4666.000,5.72895,
4665.000,5.78454,
4664.000,5.83987,
4663.000,5.89537,
4662.000,5.95115,
4661.000,6.00698,
4660.000,6.06237,
4659.000,6.11669,
4658.000,6.16972,
4657.000,6.22204,
4656.000,6.27436,
4655.000,6.32656,
4654.000,6.37792,
4653.000,6.42816,
4652.000,6.47756,
4651.000,6.52618,
4650.000,6.5737,
4649.000,6.61981,
4648.000,6.66441,
4647.000,6.70728,
4646.000,6.74832,
4645.000,6.78782,
4644.000,6.82603,
4643.000,6.86258,
4642.000,6.89671,
4641.000,6.92814,
4640.000,6.95708,
4639.000,6.98378,
4638.000,7.00862,
4637.000,7.03217,
4636.000,7.05446,
4635.000,7.07456,
4634.000,7.09147,
4633.000,7.10536,
4632.000,7.11714,
4631.000,7.12716,
4630.000,7.13502,
4629.000,7.14025,
4628.000,7.14261,
4627.000,7.14179,
4626.000,7.13783,
4625.000,7.13165,
4624.000,7.12433,
4623.000,7.11602,
4622.000,7.10608,
4621.000,7.09408,
4620.000,7.07992,
4619.000,7.06324,
4618.000,7.04361,
4617.000,7.02137,
4616.000,6.99747,
4615.000,6.97252,
4614.000,6.9466,
4613.000,6.9197,
4612.000,6.89168,
4611.000,6.86197,
4610.000,6.83016,
4609.000,6.79671,
4608.000,6.76249,
4607.000,6.72783,
4606.000,6.69258,
4605.000,6.65701,
4604.000,6.62166,
4603.000,6.58659,
4602.000,6.55126,
4601.000,6.51525,
4600.000,6.47851,
4599.000,6.44097,
4598.000,6.40256,
4597.000,6.3636,
4596.000,6.32434,
4595.000,6.28455,
4594.000,6.24384,
4593.000,6.2025,
4592.000,6.16124,
4591.000,6.12037,
4590.000,6.07985,
4589.000,6.03982,
4588.000,6.00033,
4587.000,5.96074,
4586.000,5.9202,
4585.000,5.87863,
4584.000,5.83662,
4583.000,5.79444,
4582.000,5.75205,
4581.000,5.70996,
4580.000,5.6691,
4579.000,5.62963,
4578.000,5.59046,
4577.000,5.55018,
4576.000,5.50813,
4575.000,5.46478,
4574.000,5.42139,
4573.000,5.37942,
4572.000,5.3396,
4571.000,5.30125,
4570.000,5.26308,
4569.000,5.22436,
4568.000,5.18526,
4567.000,5.14609,
4566.000,5.10705,
4565.000,5.06858,
4564.000,5.03122,
4563.000,4.99477,
4562.000,4.95813,
4561.000,4.92023,
4560.000,4.88101,
4559.000,4.84131,
4558.000,4.80225,
4557.000,4.76448,
4556.000,4.72763,
4555.000,4.69061,
4554.000,4.65257,
4553.000,4.61377,
4552.000,4.57532,
4551.000,4.53807,
4550.000,4.50207,
4549.000,4.4669,
4548.000,4.4321,
4547.000,4.39734,
4546.000,4.3626,
4545.000,4.32806,
4544.000,4.2937,
4543.000,4.25899,
4542.000,4.22342,
4541.000,4.18737,
4540.000,4.15196,
4539.000,4.11801,
4538.000,4.08525,
4537.000,4.05268,
4536.000,4.01942,
4535.000,3.98539,
4534.000,3.95123,
4533.000,3.91782,
4532.000,3.88537,
4531.000,3.8533,
4530.000,3.82097,
4529.000,3.78842,
4528.000,3.75609,
4527.000,3.72401,
4526.000,3.69179,
4525.000,3.65927,
4524.000,3.62679,
4523.000,3.59481,
4522.000,3.56349,
4521.000,3.53273,
4520.000,3.5023,
4519.000,3.47196,
4518.000,3.44173,
4517.000,3.41205,
4516.000,3.38337,
4515.000,3.35554,
4514.000,3.32778,
4513.000,3.29938,
4512.000,3.27014,
4511.000,3.24044,
4510.000,3.21106,
4509.000,3.1828,
4508.000,3.15591,
4507.000,3.12976,
4506.000,3.10328,
4505.000,3.0759,
4504.000,3.04786,
4503.000,3.01968,
4502.000,2.99175,
4501.000,2.96423,
4500.000,2.93714,
4499.000,2.91035,
4498.000,2.88365,
4497.000,2.857,
4496.000,2.83061,
4495.000,2.80468,
4494.000,2.77929,
4493.000,2.75447,
4492.000,2.73022,
4491.000,2.70645,
4490.000,2.68305,
4489.000,2.66017,
4488.000,2.63815,
4487.000,2.61704,
4486.000,2.59621,
4485.000,2.57461,
4484.000,2.55165,
4483.000,2.52773,
4482.000,2.50402,
4481.000,2.4816,
4480.000,2.46059,
4479.000,2.4402,
4478.000,2.4195,
4477.000,2.3982,
4476.000,2.37663,
4475.000,2.35527,
4474.000,2.33448,
4473.000,2.3145,
4472.000,2.29548,
4471.000,2.27729,
4470.000,2.25946,
4469.000,2.24131,
4468.000,2.22227,
4467.000,2.20225,
4466.000,2.18186,
4465.000,2.16216,
4464.000,2.144,
4463.000,2.12746,
4462.000,2.1118,
4461.000,2.096,
4460.000,2.07936,
4459.000,2.06183,
4458.000,2.04397,
4457.000,2.02655,
4456.000,2.01005,
4455.000,1.99438,
4454.000,1.97914,
4453.000,1.96399,
4452.000,1.94879,
4451.000,1.93346,
4450.000,1.91798,
4449.000,1.90258,
4448.000,1.88768,
4447.000,1.87369,
4446.000,1.86064,
4445.000,1.84815,
4444.000,1.83555,
4443.000,1.82222,
4442.000,1.80798,
4441.000,1.79338,
4440.000,1.77932,
4439.000,1.76639,
4438.000,1.7544,
4437.000,1.74267,
4436.000,1.73065,
4435.000,1.71821,
4434.000,1.70544,
4433.000,1.69233,
4432.000,1.67869,
4431.000,1.66452,
4430.000,1.6502,
4429.000,1.6363,
4428.000,1.62321,
4427.000,1.61089,
4426.000,1.59904,
4425.000,1.58741,
4424.000,1.57594,
4423.000,1.56468,
4422.000,1.55359,
4421.000,1.54249,
4420.000,1.53115,
4419.000,1.51949,
4418.000,1.50769,
4417.000,1.49604,
4416.000,1.48465,
4415.000,1.47346,
4414.000,1.46231,
4413.000,1.4511,
4412.000,1.43984,
4411.000,1.42862,
4410.000,1.41748,
4409.000,1.40635,
4408.000,1.39506,
4407.000,1.38347,
4406.000,1.3717,
4405.000,1.36003,
4404.000,1.34885,
4403.000,1.33835,
4402.000,1.32835,
4401.000,1.31835,
4400.000,1.30788,
4399.000,1.29697,
4398.000,1.28611,
4397.000,1.27573,
4396.000,1.26572,
4395.000,1.25562,
4394.000,1.24517,
4393.000,1.23455,
4392.000,1.22415,
4391.000,1.21416,
4390.000,1.20449,
4389.000,1.19499,
4388.000,1.18549,
4387.000,1.17586,
4386.000,1.16582,
4385.000,1.15511,
4384.000,1.14391,
4383.000,1.13294,
4382.000,1.12297,
4381.000,1.11402,
4380.000,1.10521,
4379.000,1.09564,
4378.000,1.08535,
4377.000,1.07524,
4376.000,1.06624,
4375.000,1.05858,
4374.000,1.05174,
4373.000,1.04483,
4372.000,1.03717,
4371.000,1.02859,
4370.000,1.01955,
4369.000,1.01076,
4368.000,1.0026,
4367.000,0.994853,
4366.000,0.98693,
4365.000,0.978398,
4364.000,0.969411,
4363.000,0.960732,
4362.000,0.953184,
4361.000,0.946889,
4360.000,0.94105,
4359.000,0.93465,
4358.000,0.927328,
4357.000,0.919526,
4356.000,0.911919,
4355.000,0.904835,
4354.000,0.898135,
4353.000,0.891441,
4352.000,0.884452,
4351.000,0.877216,
4350.000,0.870097,
4349.000,0.8634,
4348.000,0.857167,
4347.000,0.851448,
4346.000,0.846551,
4345.000,0.842635,
4344.000,0.839022,
4343.000,0.834351,
4342.000,0.827673,
4341.000,0.819331,
4340.000,0.810669,
4339.000,0.802928,
4338.000,0.796507,
4337.000,0.791062,
4336.000,0.786071,
4335.000,0.781268,
4334.000,0.776597,
4333.000,0.771889,
4332.000,0.766806,
4331.000,0.761227,
4330.000,0.755586,
4329.000,0.75057,
4328.000,0.746441,
4327.000,0.742793,
4326.000,0.739046,
4325.000,0.734971,
4324.000,0.730622,
4323.000,0.726029,
4322.000,0.721153,
4321.000,0.716073,
4320.000,0.711111,
4319.000,0.706738,
4318.000,0.703386,
4317.000,0.701175,
4316.000,0.699697,
4315.000,0.698182,
4314.000,0.696013,
4313.000,0.693141,
4312.000,0.689956,
4311.000,0.686836,
4310.000,0.683936,
4309.000,0.681324,
4308.000,0.679102,
4307.000,0.677313,
4306.000,0.675791,
4305.000,0.674198,
4304.000,0.672271,
4303.000,0.670031,
4302.000,0.667711,
4301.000,0.665485,
4300.000,0.663322,
4299.000,0.661154,
4298.000,0.659109,
4297.000,0.657444,
4296.000,0.656249,
4295.000,0.655353,
4294.000,0.654585,
4293.000,0.653963,
4292.000,0.65356,
4291.000,0.65327,
4290.000,0.652823,
4289.000,0.652015,
4288.000,0.650877,
4287.000,0.649689,
4286.000,0.648873,
4285.000,0.648773,
4284.000,0.649397,
4283.000,0.650338,
4282.000,0.651108,
4281.000,0.65162,
4280.000,0.652257,
4279.000,0.653373,
4278.000,0.654717,
4277.000,0.655483,
4276.000,0.655092,
4275.000,0.653939,
4274.000,0.653216,
4273.000,0.653831,
4272.000,0.655544,
4271.000,0.6572,
4270.000,0.657871,
4269.000,0.657742,
4268.000,0.657908,
4267.000,0.659342,
4266.000,0.662008,
4265.000,0.664883,
4264.000,0.666791,
4263.000,0.667379,
4262.000,0.667375,
4261.000,0.667861,
4260.000,0.669357,
4259.000,0.671573,
4258.000,0.673934,
4257.000,0.676155,
4256.000,0.678308,
4255.000,0.680588,
4254.000,0.683171,
4253.000,0.68621,
4252.000,0.689724,
4251.000,0.693436,
4250.000,0.696843,
4249.000,0.69952,
4248.000,0.701464,
4247.000,0.703131,
4246.000,0.705114,
4245.000,0.707687,
4244.000,0.710644,
4243.000,0.713642,
4242.000,0.716701,
4241.000,0.720261,
4240.000,0.724671,
4239.000,0.729715,
4238.000,0.734754,
4237.000,0.739311,
4236.000,0.743505,
4235.000,0.747888,
4234.000,0.752849,
4233.000,0.758107,
4232.000,0.762873,
4231.000,0.766678,
4230.000,0.770057,
4229.000,0.774241,
4228.000,0.780057,
4227.000,0.787183,
4226.000,0.794545,
4225.000,0.801402,
4224.000,0.807826,
4223.000,0.81425,
4222.000,0.820865,
4221.000,0.82751,
4220.000,0.833974,
4219.000,0.840225,
4218.000,0.846402,
4217.000,0.852682,
4216.000,0.859204,
4215.000,0.866047,
4214.000,0.873241,
4213.000,0.880785,
4212.000,0.8887,
4211.000,0.897046,
4210.000,0.905829,
4209.000,0.914855,
4208.000,0.923786,
4207.000,0.932432,
4206.000,0.940975,
4205.000,0.949796,
4204.000,0.959089,
4203.000,0.968777,
4202.000,0.978814,
4201.000,0.989393,
4200.000,1.00072,
4199.000,1.01264,
4198.000,1.02462,
4197.000,1.03615,
4196.000,1.04714,
4195.000,1.058,
4194.000,1.06945,
4193.000,1.08208,
4192.000,1.09591,
4191.000,1.11033,
4190.000,1.12441,
4189.000,1.13756,
4188.000,1.14996,
4187.000,1.16242,
4186.000,1.17583,
4185.000,1.19044,
4184.000,1.20568,
4183.000,1.22068,
4182.000,1.23526,
4181.000,1.2501,
4180.000,1.26611,
4179.000,1.28349,
4178.000,1.30162,
4177.000,1.31967,
4176.000,1.33724,
4175.000,1.35439,
4174.000,1.3714,
4173.000,1.38862,
4172.000,1.40647,
4171.000,1.42528,
4170.000,1.44511,
4169.000,1.4658,
4168.000,1.48698,
4167.000,1.50822,
4166.000,1.52918,
4165.000,1.54978,
4164.000,1.57031,
4163.000,1.5913,
4162.000,1.6131,
4161.000,1.63564,
4160.000,1.65853,
4159.000,1.68158,
4158.000,1.70495,
4157.000,1.72882,
4156.000,1.7531,
4155.000,1.77752,
4154.000,1.80217,
4153.000,1.82752,
4152.000,1.85385,
4151.000,1.8808,
4150.000,1.90771,
4149.000,1.9342,
4148.000,1.96055,
4147.000,1.98729,
4146.000,2.01488,
4145.000,2.04345,
4144.000,2.07284,
4143.000,2.10269,
4142.000,2.13266,
4141.000,2.16263,
4140.000,2.19268,
4139.000,2.22292,
4138.000,2.25353,
4137.000,2.2847,
4136.000,2.3166,
4135.000,2.34921,
4134.000,2.38236,
4133.000,2.41588,
4132.000,2.44959,
4131.000,2.48327,
4130.000,2.51678,
4129.000,2.55022,
4128.000,2.58392,
4127.000,2.61822,
4126.000,2.65329,
4125.000,2.6891,
4124.000,2.72558,
4123.000,2.76264,
4122.000,2.80015,
4121.000,2.83795,
4120.000,2.8758,
4119.000,2.91364,
4118.000,2.95171,
4117.000,2.99039,
4116.000,3.02999,
4115.000,3.07049,
4114.000,3.11169,
4113.000,3.15332,
4112.000,3.19499,
4111.000,3.2363,
4110.000,3.27723,
4109.000,3.31826,
4108.000,3.36018,
4107.000,3.40344,
4106.000,3.44793,
4105.000,3.49303,
4104.000,3.53805,
4103.000,3.58254,
4102.000,3.6265,
4101.000,3.67015,
4100.000,3.71376,
4099.000,3.75759,
4098.000,3.80207,
4097.000,3.84771,
4096.000,3.89458,
4095.000,3.94209,
4094.000,3.98926,
4093.000,4.03543,
4092.000,4.08061,
4091.000,4.12544,
4090.000,4.17072,
4089.000,4.21697,
4088.000,4.26392,
4087.000,4.31053,
4086.000,4.3556,
4085.000,4.39864,
4084.000,4.44022,
4083.000,4.4815,
4082.000,4.52344,
4081.000,4.56626,
4080.000,4.60948,
4079.000,4.6525,
4078.000,4.69507,
4077.000,4.73732,
4076.000,4.77928,
4075.000,4.82052,
4074.000,4.86031,
4073.000,4.89813,
4072.000,4.93404,
4071.000,4.96865,
4070.000,5.00255,
4069.000,5.03576,
4068.000,5.06753,
4067.000,5.09694,
4066.000,5.12373,
4065.000,5.14854,
4064.000,5.17215,
4063.000,5.19459,
4062.000,5.21495,
4061.000,5.23216,
4060.000,5.24576,
4059.000,5.25619,
4058.000,5.26429,
4057.000,5.2708,
4056.000,5.27592,
4055.000,5.27925,
4054.000,5.28009,
4053.000,5.27786,
4052.000,5.27254,
4051.000,5.26484,
4050.000,5.25578,
4049.000,5.24613,
4048.000,5.23586,
4047.000,5.22418,
4046.000,5.21007,
4045.000,5.19287,
4044.000,5.17278,
4043.000,5.15094,
4042.000,5.12885,
4041.000,5.10733,
4040.000,5.08603,
4039.000,5.06383,
4038.000,5.03998,
4037.000,5.01452,
4036.000,4.98782,
4035.000,4.95998,
4034.000,4.93089,
4033.000,4.90078,
4032.000,4.87034,
4031.000,4.84025,
4030.000,4.81053,
4029.000,4.78051,
4028.000,4.74925,
4027.000,4.71629,
4026.000,4.68195,
4025.000,4.64694,
4024.000,4.61181,
4023.000,4.57665,
4022.000,4.5413,
4021.000,4.50575,
4020.000,4.47022,
4019.000,4.43489,
4018.000,4.39972,
4017.000,4.36454,
4016.000,4.32921,
4015.000,4.2937,
4014.000,4.25801,
4013.000,4.22221,
4012.000,4.18653,
4011.000,4.15148,
4010.000,4.11758,
4009.000,4.08495,
4008.000,4.05306,
4007.000,4.02114,
4006.000,3.98874,
4005.000,3.95596,
4004.000,3.92313,
4003.000,3.89038,
4002.000,3.85769,
4001.000,3.82512,
4000.000,3.79286,
3999.000,3.76105,
3998.000,3.72964,
3997.000,3.69847,
3996.000,3.66737,
3995.000,3.63611,
3994.000,3.60442,
3993.000,3.57218,
3992.000,3.5396,
3991.000,3.50715,
3990.000,3.47522,
3989.000,3.44382,
3988.000,3.41278,
3987.000,3.38194,
3986.000,3.3512,
3985.000,3.32043,
3984.000,3.28952,
3983.000,3.25856,
3982.000,3.22786,
3981.000,3.1976,
3980.000,3.16761,
3979.000,3.13754,
3978.000,3.10725,
3977.000,3.07687,
3976.000,3.04647,
3975.000,3.016,
3974.000,2.98545,
3973.000,2.9551,
3972.000,2.92539,
3971.000,2.8965,
3970.000,2.86821,
3969.000,2.84004,
3968.000,2.81163,
3967.000,2.78304,
3966.000,2.75485,
3965.000,2.72773,
3964.000,2.70176,
3963.000,2.67614,
3962.000,2.64979,
3961.000,2.62233,
3960.000,2.59438,
3959.000,2.56683,
3958.000,2.53998,
3957.000,2.51365,
3956.000,2.48772,
3955.000,2.46241,
3954.000,2.43794,
3953.000,2.41408,
3952.000,2.39036,
3951.000,2.36636,
3950.000,2.34199,
3949.000,2.31741,
3948.000,2.29309,
3947.000,2.26956,
3946.000,2.24712,
3945.000,2.22543,
3944.000,2.2037,
3943.000,2.18141,
3942.000,2.15911,
3941.000,2.13806,
3940.000,2.11904,
3939.000,2.10128,
3938.000,2.08292,
3937.000,2.06267,
3936.000,2.04101,
3935.000,2.01961,
3934.000,1.99964,
3933.000,1.98097,
3932.000,1.96259,
3931.000,1.94385,
3930.000,1.92501,
3929.000,1.9068,
3928.000,1.88955,
3927.000,1.87278,
3926.000,1.85558,
3925.000,1.83749,
3924.000,1.81891,
3923.000,1.80083,
3922.000,1.78393,
3921.000,1.76811,
3920.000,1.75266,
3919.000,1.73682,
3918.000,1.72028,
3917.000,1.70332,
3916.000,1.68652,
3915.000,1.67024,
3914.000,1.65434,
3913.000,1.63852,
3912.000,1.62277,
3911.000,1.60742,
3910.000,1.5928,
3909.000,1.57897,
3908.000,1.56591,
3907.000,1.55348,
3906.000,1.54126,
3905.000,1.52855,
3904.000,1.51501,
3903.000,1.50119,
3902.000,1.48791,
3901.000,1.47513,
3900.000,1.46168,
3899.000,1.44652,
3898.000,1.43011,
3897.000,1.41407,
3896.000,1.39967,
3895.000,1.3871,
3894.000,1.3757,
3893.000,1.36456,
3892.000,1.35284,
3891.000,1.34025,
3890.000,1.32772,
3889.000,1.3169,
3888.000,1.30831,
3887.000,1.30021,
3886.000,1.29,
3885.000,1.27696,
3884.000,1.26314,
3883.000,1.25115,
3882.000,1.2413,
3881.000,1.23148,
3880.000,1.21974,
3879.000,1.20655,
3878.000,1.19424,
3877.000,1.18441,
3876.000,1.17632,
3875.000,1.16776,
3874.000,1.15742,
3873.000,1.14627,
3872.000,1.1363,
3871.000,1.12807,
3870.000,1.11996,
3869.000,1.11014,
3868.000,1.09892,
3867.000,1.08795,
3866.000,1.07773,
3865.000,1.06716,
3864.000,1.05552,
3863.000,1.04364,
3862.000,1.03283,
3861.000,1.02334,
3860.000,1.01436,
3859.000,1.00528,
3858.000,0.996723,
3857.000,0.990045,
3856.000,0.986002,
3855.000,0.983453,
3854.000,0.979114,
3853.000,0.969918,
3852.000,0.956827,
3851.000,0.944255,
3850.000,0.934513,
3849.000,0.925549,
3848.000,0.914915,
3847.000,0.902882,
3846.000,0.89106,
3845.000,0.880429,
3844.000,0.871155,
3843.000,0.863175,
3842.000,0.856449,
3841.000,0.850594,
3840.000,0.844611,
3839.000,0.837339,
3838.000,0.828351,
3837.000,0.818463,
3836.000,0.809175,
3835.000,0.801138,
3834.000,0.793337,
3833.000,0.784193,
3832.000,0.773344,
3831.000,0.762013,
3830.000,0.751639,
3829.000,0.742447,
3828.000,0.733491,
3827.000,0.723964,
3826.000,0.714375,
3825.000,0.706282,
3824.000,0.700621,
3823.000,0.696324,
3822.000,0.690786,
3821.000,0.682264,
3820.000,0.672158,
3819.000,0.663806,
3818.000,0.658535,
3817.000,0.653918,
3816.000,0.646438,
3815.000,0.635439,
3814.000,0.62377,
3813.000,0.614544,
3812.000,0.608303,
3811.000,0.603527,
3810.000,0.598691,
3809.000,0.593181,
3808.000,0.586952,
3807.000,0.580239,
3806.000,0.573681,
3805.000,0.568087,
3804.000,0.56353,
3803.000,0.558927,
3802.000,0.552989,
3801.000,0.54574,
3800.000,0.538806,
3799.000,0.533728,
3798.000,0.530032,
3797.000,0.52542,
3796.000,0.518138,
3795.000,0.508831,
3794.000,0.499814,
3793.000,0.492949,
3792.000,0.488384,
3791.000,0.484995,
3790.000,0.481655,
3789.000,0.47801,
3788.000,0.474201,
3787.000,0.470194,
3786.000,0.465692,
3785.000,0.460693,
3784.000,0.455837,
3783.000,0.451906,
3782.000,0.44899,
3781.000,0.446341,
3780.000,0.443114,
3779.000,0.439177,
3778.000,0.435182,
3777.000,0.431895,
3776.000,0.429487,
3775.000,0.427442,
3774.000,0.425111,
3773.000,0.422294,
3772.000,0.419317,
3771.000,0.416635,
3770.000,0.414411,
3769.000,0.412462,
3768.000,0.410457,
3767.000,0.408072,
3766.000,0.405083,
3765.000,0.401638,
3764.000,0.398385,
3763.000,0.395955,
3762.000,0.394313,
3761.000,0.392793,
3760.000,0.390796,
3759.000,0.388384,
3758.000,0.38616,
3757.000,0.384733,
3756.000,0.384335,
3755.000,0.384691,
3754.000,0.38516,
3753.000,0.385131,
3752.000,0.384464,
3751.000,0.383601,
3750.000,0.383073,
3749.000,0.38297,
3748.000,0.382982,
3747.000,0.382692,
3746.000,0.381704,
3745.000,0.379828,
3744.000,0.377458,
3743.000,0.375658,
3742.000,0.375344,
3741.000,0.376064,
3740.000,0.376084,
3739.000,0.37424,
3738.000,0.37124,
3737.000,0.368754,
3736.000,0.367718,
3735.000,0.367661,
3734.000,0.367558,
3733.000,0.367045,
3732.000,0.366504,
3731.000,0.366173,
3730.000,0.365612,
3729.000,0.364218,
3728.000,0.361981,
3727.000,0.359599,
3726.000,0.35788,
3725.000,0.357076,
3724.000,0.356944,
3723.000,0.357236,
3722.000,0.357813,
3721.000,0.358435,
3720.000,0.35874,
3719.000,0.358581,
3718.000,0.358215,
3717.000,0.358102,
3716.000,0.358562,
3715.000,0.359577,
3714.000,0.360902,
3713.000,0.362251,
3712.000,0.363386,
3711.000,0.364122,
3710.000,0.364344,
3709.000,0.364069,
3708.000,0.363491,
3707.000,0.362943,
3706.000,0.362782,
3705.000,0.363133,
3704.000,0.363799,
3703.000,0.364541,
3702.000,0.365377,
3701.000,0.366563,
3700.000,0.368243,
3699.000,0.37011,
3698.000,0.371473,
3697.000,0.371812,
3696.000,0.371329,
3695.000,0.37081,
3694.000,0.370888,
3693.000,0.371545,
3692.000,0.372414,
3691.000,0.373365,
3690.000,0.37457,
3689.000,0.376059,
3688.000,0.377671,
3687.000,0.379589,
3686.000,0.382231,
3685.000,0.385281,
3684.000,0.387471,
3683.000,0.387828,
3682.000,0.386875,
3681.000,0.386313,
3680.000,0.38754,
3679.000,0.39061,
3678.000,0.39458,
3677.000,0.398482,
3676.000,0.401767,
3675.000,0.404211,
3674.000,0.405879,
3673.000,0.40712,
3672.000,0.408168,
3671.000,0.409059,
3670.000,0.410146,
3669.000,0.411937,
3668.000,0.414366,
3667.000,0.416775,
3666.000,0.418494,
3665.000,0.419468,
3664.000,0.420329,
3663.000,0.42169,
3662.000,0.423596,
3661.000,0.42583,
3660.000,0.428503,
3659.000,0.432057,
3658.000,0.436676,
3657.000,0.441718,
3656.000,0.445905,
3655.000,0.448394,
3654.000,0.449696,
3653.000,0.451243,
3652.000,0.454201,
3651.000,0.458886,
3650.000,0.464825,
3649.000,0.471098,
3648.000,0.476835,
3647.000,0.481495,
3646.000,0.484787,
3645.000,0.486784,
3644.000,0.488168,
3643.000,0.490008,
3642.000,0.493074,
3641.000,0.497433,
3640.000,0.502607,
3639.000,0.507979,
3638.000,0.513098,
3637.000,0.517838,
3636.000,0.522428,
3635.000,0.52727,
3634.000,0.53258,
3633.000,0.53821,
3632.000,0.543919,
3631.000,0.549846,
3630.000,0.556439,
3629.000,0.563676,
3628.000,0.570435,
3627.000,0.575461,
3626.000,0.578923,
3625.000,0.582104,
3624.000,0.586074,
3623.000,0.591237,
3622.000,0.597487,
3621.000,0.60449,
3620.000,0.611871,
3619.000,0.619159,
3618.000,0.625842,
3617.000,0.631798,
3616.000,0.637492,
3615.000,0.643547,
3614.000,0.650299,
3613.000,0.657726,
3612.000,0.665603,
3611.000,0.673713,
3610.000,0.681923,
3609.000,0.690054,
3608.000,0.697834,
3607.000,0.705154,
3606.000,0.712325,
3605.000,0.71997,
3604.000,0.728556,
3603.000,0.738134,
3602.000,0.748489,
3601.000,0.75929,
3600.000,0.770082,
3599.000,0.780379,
3598.000,0.790063,
3597.000,0.799676,
3596.000,0.810091,
3595.000,0.821638,
3594.000,0.833703,
3593.000,0.84544,
3592.000,0.856843,
3591.000,0.868855,
3590.000,0.882288,
3589.000,0.896715,
3588.000,0.910461,
3587.000,0.921929,
3586.000,0.931131,
3585.000,0.939741,
3584.000,0.949566,
3583.000,0.961285,
3582.000,0.974658,
3581.000,0.989363,
3580.000,1.00523,
3579.000,1.02196,
3578.000,1.03898,
3577.000,1.05571,
3576.000,1.07185,
3575.000,1.08742,
3574.000,1.10266,
3573.000,1.11785,
3572.000,1.13332,
3571.000,1.14957,
3570.000,1.16724,
3569.000,1.18653,
3568.000,1.20654,
3567.000,1.22549,
3566.000,1.24209,
3565.000,1.25683,
3564.000,1.27141,
3563.000,1.28731,
3562.000,1.30496,
3561.000,1.32407,
3560.000,1.34402,
3559.000,1.36407,
3558.000,1.38374,
3557.000,1.40326,
3556.000,1.42321,
3555.000,1.4438,
3554.000,1.46465,
3553.000,1.48519,
3552.000,1.5051,
3551.000,1.52447,
3550.000,1.5437,
3549.000,1.56343,
3548.000,1.58419,
3547.000,1.60595,
3546.000,1.62806,
3545.000,1.64975,
3544.000,1.67079,
3543.000,1.69162,
3542.000,1.7128,
3541.000,1.73458,
3540.000,1.75692,
3539.000,1.77992,
3538.000,1.80371,
3537.000,1.82812,
3536.000,1.85236,
3535.000,1.87555,
3534.000,1.89754,
3533.000,1.91914,
3532.000,1.94132,
3531.000,1.96436,
3530.000,1.98798,
3529.000,2.01196,
3528.000,2.03647,
3527.000,2.06158,
3526.000,2.08682,
3525.000,2.11142,
3524.000,2.13505,
3523.000,2.15814,
3522.000,2.18148,
3521.000,2.20548,
3520.000,2.22996,
3519.000,2.25448,
3518.000,2.27874,
3517.000,2.3026,
3516.000,2.32608,
3515.000,2.34936,
3514.000,2.37285,
3513.000,2.39696,
3512.000,2.4217,
3511.000,2.44664,
3510.000,2.47123,
3509.000,2.49525,
3508.000,2.51875,
3507.000,2.5419,
3506.000,2.56478,
3505.000,2.58746,
3504.000,2.61011,
3503.000,2.63312,
3502.000,2.65666,
3501.000,2.68023,
3500.000,2.70282,
3499.000,2.72384,
3498.000,2.74375,
3497.000,2.76343,
3496.000,2.78301,
3495.000,2.80179,
3494.000,2.8192,
3493.000,2.83549,
3492.000,2.85132,
3491.000,2.86681,
3490.000,2.88156,
3489.000,2.89507,
3488.000,2.90716,
3487.000,2.91787,
3486.000,2.92739,
3485.000,2.93589,
3484.000,2.94332,
3483.000,2.94939,
3482.000,2.95398,
3481.000,2.9574,
3480.000,2.96011,
3479.000,2.96212,
3478.000,2.96283,
3477.000,2.96153,
3476.000,2.95804,
3475.000,2.95288,
3474.000,2.94698,
3473.000,2.94111,
3472.000,2.93546,
3471.000,2.92957,
3470.000,2.92275,
3469.000,2.9145,
3468.000,2.90462,
3467.000,2.89307,
3466.000,2.87987,
3465.000,2.86528,
3464.000,2.84985,
3463.000,2.8341,
3462.000,2.81817,
3461.000,2.80188,
3460.000,2.78514,
3459.000,2.76815,
3458.000,2.75086,
3457.000,2.73282,
3456.000,2.7136,
3455.000,2.69356,
3454.000,2.67354,
3453.000,2.65394,
3452.000,2.63423,
3451.000,2.61355,
3450.000,2.59156,
3449.000,2.56867,
3448.000,2.54565,
3447.000,2.52326,
3446.000,2.50178,
3445.000,2.48076,
3444.000,2.45935,
3443.000,2.43698,
3442.000,2.4137,
3441.000,2.38987,
3440.000,2.36572,
3439.000,2.34146,
3438.000,2.31736,
3437.000,2.29347,
3436.000,2.26935,
3435.000,2.24431,
3434.000,2.21817,
3433.000,2.19145,
3432.000,2.16491,
3431.000,2.13902,
3430.000,2.11368,
3429.000,2.08851,
3428.000,2.06327,
3427.000,2.03795,
3426.000,2.01255,
3425.000,1.98683,
3424.000,1.96056,
3423.000,1.93386,
3422.000,1.90719,
3421.000,1.8808,
3420.000,1.85455,
3419.000,1.82828,
3418.000,1.80217,
3417.000,1.77667,
3416.000,1.75202,
3415.000,1.72807,
3414.000,1.70446,
3413.000,1.68097,
3412.000,1.65796,
3411.000,1.63643,
3410.000,1.61732,
3409.000,1.60056,
3408.000,1.58518,
3407.000,1.57049,
3406.000,1.55682,
3405.000,1.54493,
3404.000,1.53495,
3403.000,1.5263,
3402.000,1.51853,
3401.000,1.51156,
3400.000,1.50524,
3399.000,1.49903,
3398.000,1.4924,
3397.000,1.48526,
3396.000,1.47793,
3395.000,1.4706,
3394.000,1.46324,
3393.000,1.45577,
3392.000,1.44822,
3391.000,1.44051,
3390.000,1.43218,
3389.000,1.42252,
3388.000,1.41124,
3387.000,1.39878,
3386.000,1.38609,
3385.000,1.37384,
3384.000,1.36213,
3383.000,1.35071,
3382.000,1.33938,
3381.000,1.32798,
3380.000,1.31635,
3379.000,1.30449,
3378.000,1.29266,
3377.000,1.28102,
3376.000,1.26939,
3375.000,1.25747,
3374.000,1.24519,
3373.000,1.23271,
3372.000,1.22017,
3371.000,1.20762,
3370.000,1.19525,
3369.000,1.18338,
3368.000,1.17205,
3367.000,1.16092,
3366.000,1.14953,
3365.000,1.13773,
3364.000,1.12569,
3363.000,1.11364,
3362.000,1.1017,
3361.000,1.08993,
3360.000,1.07851,
3359.000,1.06758,
3358.000,1.05698,
3357.000,1.04635,
3356.000,1.03548,
3355.000,1.02465,
3354.000,1.01439,
3353.000,1.00483,
3352.000,0.995539,
3351.000,0.986055,
3350.000,0.976366,
3349.000,0.96671,
3348.000,0.957128,
3347.000,0.947472,
3346.000,0.937762,
3345.000,0.928243,
3344.000,0.919036,
3343.000,0.909948,
3342.000,0.900686,
3341.000,0.89115,
3340.000,0.881515,
3339.000,0.872145,
3338.000,0.863441,
3337.000,0.855552,
3336.000,0.84817,
3335.000,0.840779,
3334.000,0.83318,
3333.000,0.825589,
3332.000,0.818156,
3331.000,0.810642,
3330.000,0.802773,
3329.000,0.794705,
3328.000,0.786829,
3327.000,0.77916,
3326.000,0.771303,
3325.000,0.763144,
3324.000,0.755277,
3323.000,0.748438,
3322.000,0.742563,
3321.000,0.736658,
3320.000,0.729664,
3319.000,0.721399,
3318.000,0.712618,
3317.000,0.704263,
3316.000,0.696716,
3315.000,0.689725,
3314.000,0.682852,
3313.000,0.675866,
3312.000,0.66869,
3311.000,0.661154,
3310.000,0.653024,
3309.000,0.644381,
3308.000,0.635813,
3307.000,0.628051,
3306.000,0.621354,
3305.000,0.615356,
3304.000,0.609518,
3303.000,0.603591,
3302.000,0.597583,
3301.000,0.59143,
3300.000,0.584924,
3299.000,0.577943,
3298.000,0.570591,
3297.000,0.563056,
3296.000,0.555448,
3295.000,0.547852,
3294.000,0.540417,
3293.000,0.533278,
3292.000,0.526448,
3291.000,0.519923,
3290.000,0.513813,
3289.000,0.508188,
3288.000,0.50278,
3287.000,0.497059,
3286.000,0.490723,
3285.000,0.484012,
3284.000,0.477408,
3283.000,0.471137,
3282.000,0.465124,
3281.000,0.459305,
3280.000,0.453728,
3279.000,0.448294,
3278.000,0.442634,
3277.000,0.436441,
3276.000,0.429883,
3275.000,0.423561,
3274.000,0.418043,
3273.000,0.413381,
3272.000,0.408996,
3271.000,0.404027,
3270.000,0.39802,
3269.000,0.39143,
3268.000,0.385344,
3267.000,0.380513,
3266.000,0.376671,
3265.000,0.372904,
3264.000,0.368573,
3263.000,0.363729,
3262.000,0.358774,
3261.000,0.354039,
3260.000,0.349756,
3259.000,0.34608,
3258.000,0.342852,
3257.000,0.339512,
3256.000,0.335515,
3255.000,0.330879,
3254.000,0.326177,
3253.000,0.322011,
3252.000,0.318559,
3251.000,0.31558,
3250.000,0.31266,
3249.000,0.309437,
3248.000,0.305783,
3247.000,0.301912,
3246.000,0.298225,
3245.000,0.294932,
3244.000,0.29179,
3243.000,0.288349,
3242.000,0.28454,
3241.000,0.280949,
3240.000,0.27836,
3239.000,0.276942,
3238.000,0.275972,
3237.000,0.274497,
3236.000,0.272215,
3235.000,0.269578,
3234.000,0.267085,
3233.000,0.264655,
3232.000,0.261845,
3231.000,0.258516,
3230.000,0.255169,
3229.000,0.252626,
3228.000,0.251427,
3227.000,0.251417,
3226.000,0.251752,
3225.000,0.251404,
3224.000,0.249879,
3223.000,0.247521,
3222.000,0.245086,
3221.000,0.242985,
3220.000,0.240994,
3219.000,0.238675,
3218.000,0.235983,
3217.000,0.233445,
3216.000,0.23173,
3215.000,0.231011,
3214.000,0.230752,
3213.000,0.230235,
3212.000,0.22933,
3211.000,0.2286,
3210.000,0.228503,
3209.000,0.228673,
3208.000,0.228272,
3207.000,0.226967,
3206.000,0.225224,
3205.000,0.223626,
3204.000,0.222228,
3203.000,0.220794,
3202.000,0.219314,
3201.000,0.217985,
3200.000,0.216827,
3199.000,0.215714,
3198.000,0.214716,
3197.000,0.214065,
3196.000,0.21369,
3195.000,0.213099,
3194.000,0.211951,
3193.000,0.210558,
3192.000,0.209568,
3191.000,0.209199,
3190.000,0.209011,
3189.000,0.208464,
3188.000,0.207513,
3187.000,0.206562,
3186.000,0.205954,
3185.000,0.205675,
3184.000,0.205471,
3183.000,0.205132,
3182.000,0.204618,
3181.000,0.204059,
3180.000,0.203684,
3179.000,0.203636,
3178.000,0.203768,
3177.000,0.203667,
3176.000,0.202997,
3175.000,0.20179,
3174.000,0.200381,
3173.000,0.199142,
3172.000,0.198383,
3171.000,0.198321,
3170.000,0.198862,
3169.000,0.199437,
3168.000,0.199392,
3167.000,0.198734,
3166.000,0.198258,
3165.000,0.198752,
3164.000,0.200197,
3163.000,0.201915,
3162.000,0.203256,
3161.000,0.203872,
3160.000,0.203523,
3159.000,0.202166,
3158.000,0.200328,
3157.000,0.198954,
3156.000,0.198607,
3155.000,0.198979,
3154.000,0.199388,
3153.000,0.199494,
3152.000,0.199343,
3151.000,0.199005,
3150.000,0.198587,
3149.000,0.198481,
3148.000,0.199119,
3147.000,0.200365,
3146.000,0.201508,
3145.000,0.202047,
3144.000,0.202213,
3143.000,0.202546,
3142.000,0.203194,
3141.000,0.203873,
3140.000,0.204304,
3139.000,0.204414,
3138.000,0.204213,
3137.000,0.20379,
3136.000,0.203418,
3135.000,0.203412,
3134.000,0.203846,
3133.000,0.204573,
3132.000,0.205475,
3131.000,0.206532,
3130.000,0.207637,
3129.000,0.208593,
3128.000,0.209358,
3127.000,0.210092,
3126.000,0.210906,
3125.000,0.211709,
3124.000,0.212353,
3123.000,0.212787,
3122.000,0.21305,
3121.000,0.213298,
3120.000,0.213864,
3119.000,0.214999,
3118.000,0.216436,
3117.000,0.217495,
3116.000,0.217795,
3115.000,0.217703,
3114.000,0.217854,
3113.000,0.218453,
3112.000,0.219301,
3111.000,0.220295,
3110.000,0.221499,
3109.000,0.222812,
3108.000,0.223966,
3107.000,0.224916,
3106.000,0.225947,
3105.000,0.227289,
3104.000,0.228911,
3103.000,0.230732,
3102.000,0.232747,
3101.000,0.234795,
3100.000,0.236503,
3099.000,0.237665,
3098.000,0.238537,
3097.000,0.239562,
3096.000,0.240974,
3095.000,0.242771,
3094.000,0.244887,
3093.000,0.247171,
3092.000,0.24937,
3091.000,0.251393,
3090.000,0.253504,
3089.000,0.256026,
3088.000,0.258864,
3087.000,0.261525,
3086.000,0.2636,
3085.000,0.265079,
3084.000,0.266256,
3083.000,0.267544,
3082.000,0.269353,
3081.000,0.271918,
3080.000,0.275109,
3079.000,0.278507,
3078.000,0.281717,
3077.000,0.284571,
3076.000,0.287118,
3075.000,0.289573,
3074.000,0.292276,
3073.000,0.295518,
3072.000,0.299304,
3071.000,0.303367,
3070.000,0.307447,
3069.000,0.311517,
3068.000,0.315711,
3067.000,0.320119,
3066.000,0.324658,
3065.000,0.329082,
3064.000,0.33311,
3063.000,0.336646,
3062.000,0.339896,
3061.000,0.343229,
3060.000,0.346932,
3059.000,0.351146,
3058.000,0.355951,
3057.000,0.361346,
3056.000,0.367139,
3055.000,0.373003,
3054.000,0.37874,
3053.000,0.384409,
3052.000,0.390179,
3051.000,0.396152,
3050.000,0.402361,
3049.000,0.408858,
3048.000,0.415707,
3047.000,0.42296,
3046.000,0.430685,
3045.000,0.438956,
3044.000,0.447753,
3043.000,0.45697,
3042.000,0.46657,
3041.000,0.476634,
3040.000,0.487101,
3039.000,0.497564,
3038.000,0.507575,
3037.000,0.517244,
3036.000,0.527414,
3035.000,0.539033,
3034.000,0.552285,
3033.000,0.566411,
3032.000,0.580377,
3031.000,0.593704,
3030.000,0.606675,
3029.000,0.619891,
3028.000,0.63382,
3027.000,0.648647,
3026.000,0.664305,
3025.000,0.68048,
3024.000,0.696785,
3023.000,0.713195,
3022.000,0.730221,
3021.000,0.748465,
3020.000,0.767985,
3019.000,0.788307,
3018.000,0.809087,
3017.000,0.830495,
3016.000,0.852913,
3015.000,0.876474,
3014.000,0.901044,
3013.000,0.926455,
3012.000,0.952487,
3011.000,0.978825,
3010.000,1.00535,
3009.000,1.0324,
3008.000,1.06039,
3007.000,1.08917,
3006.000,1.11811,
3005.000,1.14687,
3004.000,1.17589,
3003.000,1.20565,
3002.000,1.23586,
3001.000,1.26557,
3000.000,1.29416,
2999.000,1.32174,
2998.000,1.34847,
2997.000,1.37397,
2996.000,1.39755,
2995.000,1.41885,
2994.000,1.43777,
2993.000,1.45396,
2992.000,1.46654,
2991.000,1.4745,
2990.000,1.47716,
2989.000,1.47423,
2988.000,1.46558,
2987.000,1.45097,
2986.000,1.4301,
2985.000,1.40265,
2984.000,1.36847,
2983.000,1.3276,
2982.000,1.28031,
2981.000,1.22722,
2980.000,1.16931,
2979.000,1.10773,
2978.000,1.04351,
2977.000,0.977466,
2976.000,0.910484,
2975.000,0.84352,
2974.000,0.777547,
2973.000,0.713472,
2972.000,0.652207,
2971.000,0.594511,
2970.000,0.540744,
2969.000,0.490924,
2968.000,0.445072,
2967.000,0.403415,
2966.000,0.36602,
2965.000,0.332526,
2964.000,0.302404,
2963.000,0.275475,
2962.000,0.25198,
2961.000,0.231976,
2960.000,0.214999,
2959.000,0.200347,
2958.000,0.187581,
2957.000,0.176592,
2956.000,0.16718,
2955.000,0.158906,
2954.000,0.151373,
2953.000,0.144509,
2952.000,0.138442,
2951.000,0.133088,
2950.000,0.128035,
2949.000,0.122803,
2948.000,0.117157,
2947.000,0.111163,
2946.000,0.105037,
2945.000,0.099026,
2944.000,0.0933723,
2943.000,0.0882546,
2942.000,0.0837583,
2941.000,0.0799554,
2940.000,0.0769703,
2939.000,0.0749087,
2938.000,0.0737508,
2937.000,0.0734337,
2936.000,0.0739316,
2935.000,0.0751234,
2934.000,0.0767344,
2933.000,0.0785021,
2932.000,0.0804812,
2931.000,0.0831265,
2930.000,0.0869275,
2929.000,0.0919676,
2928.000,0.0978575,
2927.000,0.104134,
2926.000,0.110593,
2925.000,0.11727,
2924.000,0.124383,
2923.000,0.132255,
2922.000,0.141027,
2921.000,0.150407,
2920.000,0.159933,
2919.000,0.169619,
2918.000,0.180213,
2917.000,0.19261,
2916.000,0.206952,
2915.000,0.222405,
2914.000,0.237854,
2913.000,0.252812,
2912.000,0.2676,
2911.000,0.282611,
2910.000,0.297511,
2909.000,0.311355,
2908.000,0.32356,
2907.000,0.334629,
2906.000,0.345737,
2905.000,0.357759,
2904.000,0.370863,
2903.000,0.38486,
2902.000,0.399502,
2901.000,0.414451,
2900.000,0.429376,
2899.000,0.444343,
2898.000,0.459809,
2897.000,0.475998,
2896.000,0.492446,
2895.000,0.508425,
2894.000,0.523627,
2893.000,0.538174,
2892.000,0.552092,
2891.000,0.565142,
2890.000,0.577167,
2889.000,0.588274,
2888.000,0.598442,
2887.000,0.607109,
2886.000,0.613269,
2885.000,0.616035,
2884.000,0.615093,
2883.000,0.610698,
2882.000,0.603283,
2881.000,0.593063,
2880.000,0.579926,
2879.000,0.563658,
2878.000,0.544186,
2877.000,0.521674,
2876.000,0.496604,
2875.000,0.469847,
2874.000,0.442484,
2873.000,0.415308,
2872.000,0.388443,
2871.000,0.361637,
2870.000,0.334995,
2869.000,0.309306,
2868.000,0.285698,
2867.000,0.265032,
2866.000,0.247737,
2865.000,0.234037,
2864.000,0.224139,
2863.000,0.218232,
2862.000,0.216412,
2861.000,0.218606,
2860.000,0.224583,
2859.000,0.234071,
2858.000,0.246943,
2857.000,0.263269,
2856.000,0.283245,
2855.000,0.307235,
2854.000,0.335845,
2853.000,0.369763,
2852.000,0.409407,
2851.000,0.454818,
2850.000,0.505914,
2849.000,0.562577,
2848.000,0.624285,
2847.000,0.689761,
2846.000,0.757228,
2845.000,0.82506,
2844.000,0.8922,
2843.000,0.957835,
2842.000,1.02085,
2841.000,1.07978,
2840.000,1.13326,
2839.000,1.18051,
2838.000,1.22125,
2837.000,1.25529,
2836.000,1.28237,
2835.000,1.30237,
2834.000,1.31573,
2833.000,1.32351,
2832.000,1.32719,
2831.000,1.32819,
2830.000,1.32759,
2829.000,1.3262,
2828.000,1.32494,
2827.000,1.32492,
2826.000,1.32704,
2825.000,1.33164,
2824.000,1.3384,
2823.000,1.3466,
2822.000,1.35542,
2821.000,1.36407,
2820.000,1.37192,
2819.000,1.37848,
2818.000,1.38352,
2817.000,1.38693,
2816.000,1.38871,
2815.000,1.38884,
2814.000,1.38716,
2813.000,1.38346,
2812.000,1.37776,
2811.000,1.37032,
2810.000,1.36148,
2809.000,1.35133,
2808.000,1.33976,
2807.000,1.32676,
2806.000,1.31255,
2805.000,1.29745,
2804.000,1.28165,
2803.000,1.26511,
2802.000,1.2477,
2801.000,1.22942,
2800.000,1.21075,
2799.000,1.19245,
2798.000,1.17525,
2797.000,1.15941,
2796.000,1.14482,
2795.000,1.13121,
2794.000,1.1184,
2793.000,1.10642,
2792.000,1.09523,
2791.000,1.08452,
2790.000,1.07365,
2789.000,1.06207,
2788.000,1.0498,
2787.000,1.03729,
2786.000,1.02484,
2785.000,1.01213,
2784.000,0.998591,
2783.000,0.984101,
2782.000,0.969152,
2781.000,0.954408,
2780.000,0.940221,
2779.000,0.926544,
2778.000,0.913141,
2777.000,0.899789,
2776.000,0.886386,
2775.000,0.873001,
2774.000,0.859806,
2773.000,0.846926,
2772.000,0.834353,
2771.000,0.822022,
2770.000,0.809926,
2769.000,0.798105,
2768.000,0.786574,
2767.000,0.775287,
2766.000,0.764186,
2765.000,0.753228,
2764.000,0.742399,
2763.000,0.731773,
2762.000,0.721538,
2761.000,0.711869,
2760.000,0.702699,
2759.000,0.693698,
2758.000,0.684574,
2757.000,0.675357,
2756.000,0.666321,
2755.000,0.657614,
2754.000,0.649097,
2753.000,0.640603,
2752.000,0.632183,
2751.000,0.623975,
2750.000,0.615863,
2749.000,0.607452,
2748.000,0.598453,
2747.000,0.589016,
2746.000,0.579653,
2745.000,0.570865,
2744.000,0.562857,
2743.000,0.555483,
2742.000,0.548327,
2741.000,0.540894,
2740.000,0.532874,
2739.000,0.524331,
2738.000,0.515625,
2737.000,0.507131,
2736.000,0.49901,
2735.000,0.491219,
2734.000,0.48364,
2733.000,0.47617,
2732.000,0.468713,
2731.000,0.461192,
2730.000,0.45364,
2729.000,0.446306,
2728.000,0.439594,
2727.000,0.43374,
2726.000,0.428436,
2725.000,0.422901,
2724.000,0.416467,
2723.000,0.409132,
2722.000,0.401464,
2721.000,0.393965,
2720.000,0.386673,
2719.000,0.379419,
2718.000,0.372268,
2717.000,0.365511,
2716.000,0.35929,
2715.000,0.3534,
2714.000,0.347484,
2713.000,0.341298,
2712.000,0.334813,
2711.000,0.32823,
2710.000,0.321901,
2709.000,0.316076,
2708.000,0.31062,
2707.000,0.305098,
2706.000,0.299242,
2705.000,0.293287,
2704.000,0.287758,
2703.000,0.282931,
2702.000,0.278527,
2701.000,0.27392,
2700.000,0.268675,
2699.000,0.262941,
2698.000,0.257333,
2697.000,0.252336,
2696.000,0.247838,
2695.000,0.243344,
2694.000,0.238616,
2693.000,0.233935,
2692.000,0.229693,
2691.000,0.225884,
2690.000,0.22215,
2689.000,0.218222,
2688.000,0.214189,
2687.000,0.210335,
2686.000,0.206816,
2685.000,0.20352,
2684.000,0.200215,
2683.000,0.196835,
2682.000,0.193571,
2681.000,0.19061,
2680.000,0.187842,
2679.000,0.185005,
2678.000,0.182113,
2677.000,0.179509,
2676.000,0.17742,
2675.000,0.175683,
2674.000,0.174038,
2673.000,0.172457,
2672.000,0.170961,
2671.000,0.169303,
2670.000,0.167218,
2669.000,0.164946,
2668.000,0.163154,
2667.000,0.162247,
2666.000,0.161939,
2665.000,0.16157,
2664.000,0.160651,
2663.000,0.159068,
2662.000,0.157013,
2661.000,0.154886,
2660.000,0.153081,
2659.000,0.151696,
2658.000,0.150457,
2657.000,0.149028,
2656.000,0.147352,
2655.000,0.14566,
2654.000,0.144195,
2653.000,0.142998,
2652.000,0.141907,
2651.000,0.140672,
2650.000,0.139142,
2649.000,0.137421,
2648.000,0.135888,
2647.000,0.134948,
2646.000,0.134676,
2645.000,0.134666,
2644.000,0.134259,
2643.000,0.133031,
2642.000,0.131129,
2641.000,0.129127,
2640.000,0.127537,
2639.000,0.126473,
2638.000,0.125781,
2637.000,0.125379,
2636.000,0.125271,
2635.000,0.125259,
2634.000,0.124866,
2633.000,0.12368,
2632.000,0.121748,
2631.000,0.119615,
2630.000,0.117963,
2629.000,0.11716,
2628.000,0.11705,
2627.000,0.117162,
2626.000,0.117155,
2625.000,0.11705,
2624.000,0.117007,
2623.000,0.116947,
2622.000,0.116533,
2621.000,0.115518,
2620.000,0.113991,
2619.000,0.112312,
2618.000,0.110899,
2617.000,0.110055,
2616.000,0.109791,
2615.000,0.109721,
2614.000,0.109292,
2613.000,0.108292,
2612.000,0.107128,
2611.000,0.10648,
2610.000,0.106633,
2609.000,0.107206,
2608.000,0.107548,
2607.000,0.107356,
2606.000,0.10683,
2605.000,0.106228,
2604.000,0.105471,
2603.000,0.104359,
2602.000,0.103136,
2601.000,0.10255,
2600.000,0.103103,
2599.000,0.104353,
2598.000,0.105198,
2597.000,0.104871,
2596.000,0.10352,
2595.000,0.101891,
2594.000,0.100691,
2593.000,0.100245,
2592.000,0.100419,
2591.000,0.100705,
2590.000,0.100582,
2589.000,0.100031,
2588.000,0.0996195,
2587.000,0.099887,
2586.000,0.100669,
2585.000,0.101167,
2584.000,0.100722,
2583.000,0.0994805,
2582.000,0.0983006,
2581.000,0.098033,
2580.000,0.098801,
2579.000,0.0999285,
2578.000,0.100609,
2577.000,0.100643,
2576.000,0.100467,
2575.000,0.100476,
2574.000,0.100541,
2573.000,0.100323,
2572.000,0.0998848,
2571.000,0.099634,
2570.000,0.099713,
2569.000,0.0997811,
2568.000,0.0995139,
2567.000,0.0990718,
2566.000,0.0988738,
2565.000,0.0990613,
2564.000,0.0993881,
2563.000,0.0995589,
2562.000,0.0994558,
2561.000,0.0990579,
2560.000,0.0983943,
2559.000,0.0976661,
2558.000,0.0972234,
2557.000,0.0972478,
2556.000,0.0975188,
2555.000,0.0976019,
2554.000,0.0972748,
2553.000,0.0967406,
2552.000,0.0964325,
2551.000,0.09661,
2550.000,0.0970973,
2549.000,0.097408,
2548.000,0.0971889,
2547.000,0.0965919,
2546.000,0.0961914,
2545.000,0.0964749,
2544.000,0.0973794,
2543.000,0.0983676,
2542.000,0.0989747,
2541.000,0.0992314,
2540.000,0.099486,
2539.000,0.0998818,
2538.000,0.100195,
2537.000,0.100235,
2536.000,0.100218,
2535.000,0.100517,
2534.000,0.101097,
2533.000,0.101433,
2532.000,0.101123,
2531.000,0.100388,
2530.000,0.0998103,
2529.000,0.0997208,
2528.000,0.100072,
2527.000,0.100768,
2526.000,0.101748,
2525.000,0.102696,
2524.000,0.10307,
2523.000,0.102695,
2522.000,0.10211,
2521.000,0.102035,
2520.000,0.102568,
2519.000,0.103187,
2518.000,0.103465,
2517.000,0.10352,
2516.000,0.103744,
2515.000,0.104316,
2514.000,0.105116,
2513.000,0.105949,
2512.000,0.106699,
2511.000,0.107333,
2510.000,0.107875,
2509.000,0.108373,
2508.000,0.108834,
2507.000,0.109218,
2506.000,0.109491,
2505.000,0.109643,
2504.000,0.10973,
2503.000,0.110003,
2502.000,0.110823,
2501.000,0.112245,
2500.000,0.113763,
2499.000,0.114741,
2498.000,0.115083,
2497.000,0.115259,
2496.000,0.115631,
2495.000,0.116065,
2494.000,0.116301,
2493.000,0.116415,
2492.000,0.116696,
2491.000,0.117263,
2490.000,0.118022,
2489.000,0.118867,
2488.000,0.119724,
2487.000,0.120515,
2486.000,0.121281,
2485.000,0.122206,
2484.000,0.123352,
2483.000,0.124518,
2482.000,0.125553,
2481.000,0.126602,
2480.000,0.127786,
2479.000,0.128802,
2478.000,0.129234,
2477.000,0.129207,
2476.000,0.129388,
2475.000,0.130281,
2474.000,0.131774,
2473.000,0.133415,
2472.000,0.134844,
2471.000,0.135918,
2470.000,0.136702,
2469.000,0.137519,
2468.000,0.138776,
2467.000,0.140607,
2466.000,0.142749,
2465.000,0.144816,
2464.000,0.146543,
2463.000,0.147787,
2462.000,0.148545,
2461.000,0.149087,
2460.000,0.149893,
2459.000,0.151274,
2458.000,0.153085,
2457.000,0.154869,
2456.000,0.156268,
2455.000,0.157305,
2454.000,0.158347,
2453.000,0.159799,
2452.000,0.161747,
2451.000,0.163869,
2450.000,0.165786,
2449.000,0.167456,
2448.000,0.169098,
2447.000,0.170802,
2446.000,0.17244,
2445.000,0.173962,
2444.000,0.175526,
2443.000,0.177295,
2442.000,0.179348,
2441.000,0.18183,
2440.000,0.184875,
2439.000,0.188252,
2438.000,0.191373,
2437.000,0.193886,
2436.000,0.196079,
2435.000,0.198466,
2434.000,0.201151,
2433.000,0.20389,
2432.000,0.20662,
2431.000,0.20958,
2430.000,0.212906,
2429.000,0.21636,
2428.000,0.219561,
2427.000,0.222369,
2426.000,0.225019,
2425.000,0.227937,
2424.000,0.231396,
2423.000,0.235291,
2422.000,0.239282,
2421.000,0.243209,
2420.000,0.247248,
2419.000,0.251634,
2418.000,0.256364,
2417.000,0.26127,
2416.000,0.266169,
2415.000,0.270869,
2414.000,0.275239,
2413.000,0.279485,
2412.000,0.284145,
2411.000,0.28956,
2410.000,0.295481,
2409.000,0.301455,
2408.000,0.307421,
2407.000,0.313644,
2406.000,0.320211,
2405.000,0.326981,
2404.000,0.33399,
2403.000,0.341468,
2402.000,0.349366,
2401.000,0.357289,
2400.000,0.365005,
2399.000,0.372722,
2398.000,0.38069,
2397.000,0.388848,
2396.000,0.397099,
2395.000,0.405663,
2394.000,0.414898,
2393.000,0.424837,
2392.000,0.435135,
2391.000,0.44549,
2390.000,0.455941,
2389.000,0.466734,
2388.000,0.47794,
2387.000,0.489256,
2386.000,0.500295,
2385.000,0.511127,
2384.000,0.52243,
2383.000,0.534892,
2382.000,0.548541,
2381.000,0.562933,
2380.000,0.57791,
2379.000,0.593776,
2378.000,0.610639,
2377.000,0.627942,
2376.000,0.645011,
2375.000,0.661851,
2374.000,0.679133,
2373.000,0.697524,
2372.000,0.717241,
2371.000,0.738124,
2370.000,0.759965,
2369.000,0.782719,
2368.000,0.806316,
2367.000,0.830271,
2366.000,0.853754,
2365.000,0.876127,
2364.000,0.89723,
2363.000,0.917726,
2362.000,0.93849,
2361.000,0.95956,
2360.000,0.980857,
2359.000,1.00222,
2358.000,1.02364,
2357.000,1.04512,
2356.000,1.06634,
2355.000,1.08733,
2354.000,1.10795,
2353.000,1.12909,
2352.000,1.15132,
2351.000,1.17323,
2350.000,1.19331,
2349.000,1.21201,
2348.000,1.23287,
2347.000,1.25752,
2346.000,1.28363,
2345.000,1.30784,
2344.000,1.32823,
2343.000,1.34572,
2342.000,1.36118,
2341.000,1.37567,
2340.000,1.39,
2339.000,1.40467,
2338.000,1.41935,
2337.000,1.43354,
2336.000,1.4471,
2335.000,1.46083,
2334.000,1.47509,
2333.000,1.48967,
2332.000,1.5037,
2331.000,1.51613,
2330.000,1.52732,
2329.000,1.53704,
2328.000,1.54632,
2327.000,1.55577,
2326.000,1.56609,
2325.000,1.57717,
2324.000,1.58755,
2323.000,1.59633,
2322.000,1.60272,
2321.000,1.60714,
2320.000,1.60984,
2319.000,1.61129,
2318.000,1.61192,
2317.000,1.61209,
2316.000,1.61214,
2315.000,1.61162,
2314.000,1.60981,
2313.000,1.60568,
2312.000,1.59906,
2311.000,1.59009,
2310.000,1.57939,
2309.000,1.56751,
2308.000,1.55537,
2307.000,1.54347,
2306.000,1.53167,
2305.000,1.51927,
2304.000,1.50579,
2303.000,1.49121,
2302.000,1.4758,
2301.000,1.45977,
2300.000,1.44358,
2299.000,1.42746,
2298.000,1.41131,
2297.000,1.39457,
2296.000,1.37727,
2295.000,1.36003,
2294.000,1.34363,
2293.000,1.32815,
2292.000,1.31295,
2291.000,1.29703,
2290.000,1.27965,
2289.000,1.26096,
2288.000,1.24228,
2287.000,1.22515,
2286.000,1.21006,
2285.000,1.19617,
2284.000,1.18239,
2283.000,1.16829,
2282.000,1.15386,
2281.000,1.13909,
2280.000,1.12389,
2279.000,1.10839,
2278.000,1.09278,
2277.000,1.07717,
2276.000,1.06165,
2275.000,1.04626,
2274.000,1.03078,
2273.000,1.01487,
2272.000,0.99866,
2271.000,0.98281,
2270.000,0.96776,
2269.000,0.953248,
2268.000,0.938855,
2267.000,0.924624,
2266.000,0.910757,
2265.000,0.896992,
2264.000,0.882837,
2263.000,0.868239,
2262.000,0.853599,
2261.000,0.839229,
2260.000,0.825124,
2259.000,0.811284,
2258.000,0.797766,
2257.000,0.784497,
2256.000,0.77128,
2255.000,0.758074,
2254.000,0.745011,
2253.000,0.732138,
2252.000,0.71944,
2251.000,0.706997,
2250.000,0.694926,
2249.000,0.683171,
2248.000,0.671666,
2247.000,0.660643,
2246.000,0.65038,
2245.000,0.640604,
2244.000,0.630551,
2243.000,0.619782,
2242.000,0.60866,
2241.000,0.597833,
2240.000,0.587515,
2239.000,0.577512,
2238.000,0.567699,
2237.000,0.558165,
2236.000,0.548969,
2235.000,0.540025,
2234.000,0.531258,
2233.000,0.522674,
2232.000,0.514253,
2231.000,0.505935,
2230.000,0.497749,
2229.000,0.489845,
2228.000,0.482322,
2227.000,0.475088,
2226.000,0.467915,
2225.000,0.460629,
2224.000,0.453245,
2223.000,0.445977,
2222.000,0.439069,
2221.000,0.432547,
2220.000,0.426106,
2219.000,0.419332,
2218.000,0.412068,
2217.000,0.40458,
2216.000,0.397304,
2215.000,0.39042,
2214.000,0.383716,
2213.000,0.376946,
2212.000,0.370297,
2211.000,0.364333,
2210.000,0.359328,
2209.000,0.354747,
2208.000,0.349618,
2207.000,0.343476,
2206.000,0.336789,
2205.000,0.330381,
2204.000,0.324595,
2203.000,0.319115,
2202.000,0.313477,
2201.000,0.307522,
2200.000,0.301378,
2199.000,0.295238,
2198.000,0.289309,
2197.000,0.283839,
2196.000,0.278966,
2195.000,0.274488,
2194.000,0.269886,
2193.000,0.264732,
2192.000,0.259097,
2191.000,0.253508,
2190.000,0.248408,
2189.000,0.243695,
2188.000,0.238867,
2187.000,0.233581,
2186.000,0.228009,
2185.000,0.222643,
2184.000,0.217857,
2183.000,0.213666,
2182.000,0.209772,
2181.000,0.205801,
2180.000,0.201587,
2179.000,0.197286,
2178.000,0.193152,
2177.000,0.189222,
2176.000,0.185329,
2175.000,0.181453,
2174.000,0.177841,
2173.000,0.174693,
2172.000,0.171873,
2171.000,0.169081,
2170.000,0.166156,
2169.000,0.163077,
2168.000,0.159848,
2167.000,0.156583,
2166.000,0.153562,
2165.000,0.150931,
2164.000,0.148449,
2163.000,0.145772,
2162.000,0.14294,
2161.000,0.140296,
2160.000,0.137958,
2159.000,0.135708,
2158.000,0.133425,
2157.000,0.131282,
2156.000,0.129433,
2155.000,0.127775,
2154.000,0.12608,
2153.000,0.124156,
2152.000,0.121871,
2151.000,0.119262,
2150.000,0.116715,
2149.000,0.114708,
2148.000,0.113246,
2147.000,0.111745,
2146.000,0.109687,
2145.000,0.107205,
2144.000,0.104872,
2143.000,0.103068,
2142.000,0.101759,
2141.000,0.10073,
2140.000,0.0997498,
2139.000,0.0985896,
2138.000,0.0971727,
2137.000,0.0957525,
2136.000,0.0947177,
2135.000,0.0941578,
2134.000,0.0937503,
2133.000,0.093102,
2132.000,0.0920981,
2131.000,0.0908893,
2130.000,0.0896794,
2129.000,0.0885592,
2128.000,0.0874789,
2127.000,0.0863647,
2126.000,0.0852851,
2125.000,0.0844681,
2124.000,0.0840748,
2123.000,0.0839344,
2122.000,0.0836045,
2121.000,0.0827592,
2120.000,0.0814822,
2119.000,0.080119,
2118.000,0.0788959,
2117.000,0.0777747,
2116.000,0.0766732,
2115.000,0.0757232,
2114.000,0.0751653,
2113.000,0.0749494,
2112.000,0.0746249,
2111.000,0.0737985,
2110.000,0.0726292,
2109.000,0.0716497,
2108.000,0.0711265,
2107.000,0.0708735,
2106.000,0.0706369,
2105.000,0.0703951,
2104.000,0.0702239,
2103.000,0.0700618,
2102.000,0.0697877,
2101.000,0.0693834,
2100.000,0.0688452,
2099.000,0.0680964,
2098.000,0.0671723,
2097.000,0.0663351,
2096.000,0.065803,
2095.000,0.0654471,
2094.000,0.0649261,
2093.000,0.0640483,
2092.000,0.062891,
2091.000,0.0617201,
2090.000,0.0609172,
2089.000,0.0608088,
2088.000,0.0613213,
2087.000,0.0618897,
2086.000,0.0619712,
2085.000,0.0615835,
2084.000,0.0610738,
2083.000,0.0604793,
2082.000,0.0595146,
2081.000,0.0582229,
2080.000,0.0572043,
2079.000,0.0569394,
2078.000,0.0571839,
2077.000,0.057276,
2076.000,0.0568634,
2075.000,0.0561165,
2074.000,0.0553889,
2073.000,0.0549188,
2072.000,0.0547682,
2071.000,0.0548006,
2070.000,0.054704,
2069.000,0.0542449,
2068.000,0.0535586,
2067.000,0.0530696,
2066.000,0.053087,
2065.000,0.0535348,
2064.000,0.0540383,
2063.000,0.0541889,
2062.000,0.0537794,
2061.000,0.0529624,
2060.000,0.0522054,
2059.000,0.051926,
2058.000,0.0521017,
2057.000,0.052361,
2056.000,0.0524783,
2055.000,0.0525993,
2054.000,0.0529228,
2053.000,0.0533524,
2052.000,0.0536068,
2051.000,0.053555,
2050.000,0.0532855,
2049.000,0.0528943,
2048.000,0.0523778,
2047.000,0.0517558,
2046.000,0.0511341,
2045.000,0.0505933,
2044.000,0.0501019,
2043.000,0.0496102,
2042.000,0.0491536,
2041.000,0.0487107,
2040.000,0.0481236,
2039.000,0.0474131,
2038.000,0.0470205,
2037.000,0.0474271,
2036.000,0.0485301,
2035.000,0.0496169,
2034.000,0.0500437,
2033.000,0.0498048,
2032.000,0.0493248,
2031.000,0.0488291,
2030.000,0.0481434,
2029.000,0.0471572,
2028.000,0.046261,
2027.000,0.046076,
2026.000,0.0467601,
2025.000,0.0477812,
2024.000,0.0484575,
2023.000,0.0485667,
2022.000,0.0482656,
2021.000,0.0476593,
2020.000,0.0467885,
2019.000,0.046009,
2018.000,0.0459693,
2017.000,0.0468785,
2016.000,0.0480845,
2015.000,0.0487167,
2014.000,0.0485364,
2013.000,0.0479714,
2012.000,0.0474954,
2011.000,0.0472529,
2010.000,0.047251,
2009.000,0.0475197,
2008.000,0.0478662,
2007.000,0.0477453,
2006.000,0.0467585,
2005.000,0.0452756,
2004.000,0.0442412,
2003.000,0.0442783,
2002.000,0.0451491,
2001.000,0.0461217,
2000.000,0.0467266,
1999.000,0.0470451,
1998.000,0.0473757,
1997.000,0.0478021,
1996.000,0.0481781,
1995.000,0.0484001,
1994.000,0.0484746,
1993.000,0.0483755,
1992.000,0.0480432,
1991.000,0.0475371,
1990.000,0.0470097,
1989.000,0.0465311,
1988.000,0.0461221,
1987.000,0.0459651,
1986.000,0.0462453,
1985.000,0.0467132,
1984.000,0.046837,
1983.000,0.0465267,
1982.000,0.0463283,
1981.000,0.0466558,
1980.000,0.0471938,
1979.000,0.0474167,
1978.000,0.0474237,
1977.000,0.0477496,
1976.000,0.0484669,
1975.000,0.049015,
1974.000,0.0490081,
1973.000,0.0487836,
1972.000,0.0488947,
1971.000,0.0493527,
1970.000,0.0496517,
1969.000,0.0493937,
1968.000,0.0487021,
1967.000,0.0480888,
1966.000,0.0479768,
1965.000,0.0483329,
1964.000,0.0487527,
1963.000,0.0488929,
1962.000,0.048797,
1961.000,0.0487671,
1960.000,0.0489927,
1959.000,0.049418,
1958.000,0.0498835,
1957.000,0.0502538,
1956.000,0.0504754,
1955.000,0.050657,
1954.000,0.0510347,
1953.000,0.05171,
1952.000,0.0525012,
1951.000,0.0532025,
1950.000,0.0538408,
1949.000,0.05449,
1948.000,0.0549456,
1947.000,0.0548917,
1946.000,0.0543748,
1945.000,0.0537721,
1944.000,0.0533167,
1943.000,0.0529567,
1942.000,0.0527417,
1941.000,0.0530032,
1940.000,0.0539326,
1939.000,0.0552299,
1938.000,0.0563327,
1937.000,0.0569499,
1936.000,0.0572263,
1935.000,0.0574099,
1934.000,0.0575939,
1933.000,0.0577388,
1932.000,0.0578198,
1931.000,0.0579712,
1930.000,0.0583962,
1929.000,0.0590678,
1928.000,0.0596129,
1927.000,0.0597373,
1926.000,0.0597024,
1925.000,0.0599736,
1924.000,0.06052,
1923.000,0.0607962,
1922.000,0.0606083,
1921.000,0.0606164,
1920.000,0.0615733,
1919.000,0.0634099,
1918.000,0.0653056,
1917.000,0.0664117,
1916.000,0.0664594,
1915.000,0.0658522,
1914.000,0.0653125,
1913.000,0.0654314,
1912.000,0.0662433,
1911.000,0.0672132,
1910.000,0.0678597,
1909.000,0.0683108,
1908.000,0.0690269,
1907.000,0.0701569,
1906.000,0.071401,
1905.000,0.0723543,
1904.000,0.0728825,
1903.000,0.0730548,
1902.000,0.0730076,
1901.000,0.0730018,
1900.000,0.0733676,
1899.000,0.0743508,
1898.000,0.0759168,
1897.000,0.0776532,
1896.000,0.0790473,
1895.000,0.0799287,
1894.000,0.080659,
1893.000,0.0817924,
1892.000,0.0834576,
1891.000,0.0852265,
1890.000,0.0866027,
1889.000,0.0875069,
1888.000,0.0882793,
1887.000,0.0893029,
1886.000,0.090558,
1885.000,0.0916629,
1884.000,0.0924182,
1883.000,0.0931226,
1882.000,0.094296,
1881.000,0.0961118,
1880.000,0.0981345,
1879.000,0.0997981,
1878.000,0.101012,
1877.000,0.102062,
1876.000,0.103228,
1875.000,0.104662,
1874.000,0.106458,
1873.000,0.108655,
1872.000,0.111155,
1871.000,0.113795,
1870.000,0.116426,
1869.000,0.118724,
1868.000,0.120165,
1867.000,0.120752,
1866.000,0.121449,
1865.000,0.12312,
1864.000,0.125679,
1863.000,0.128606,
1862.000,0.131517,
1861.000,0.134217,
1860.000,0.13668,
1859.000,0.139214,
1858.000,0.142349,
1857.000,0.146171,
1856.000,0.150016,
1855.000,0.153271,
1854.000,0.156211,
1853.000,0.159608,
1852.000,0.163682,
1851.000,0.168032,
1850.000,0.172559,
1849.000,0.177397,
1848.000,0.182471,
1847.000,0.187736,
1846.000,0.193625,
1845.000,0.200663,
1844.000,0.208457,
1843.000,0.21584,
1842.000,0.222331,
1841.000,0.228592,
1840.000,0.235051,
1839.000,0.241643,
1838.000,0.248423,
1837.000,0.25553,
1836.000,0.263014,
1835.000,0.270682,
1834.000,0.278557,
1833.000,0.287203,
1832.000,0.297193,
1831.000,0.308556,
1830.000,0.320518,
1829.000,0.331649,
1828.000,0.34204,
1827.000,0.353658,
1826.000,0.366753,
1825.000,0.379616,
1824.000,0.391189,
1823.000,0.401999,
1822.000,0.413205,
1821.000,0.424905,
1820.000,0.436567,
1819.000,0.44839,
1818.000,0.460747,
1817.000,0.473216,
1816.000,0.485058,
1815.000,0.49584,
1814.000,0.505728,
1813.000,0.514618,
1812.000,0.521527,
1811.000,0.525882,
1810.000,0.528185,
1809.000,0.530224,
1808.000,0.533721,
1807.000,0.538839,
1806.000,0.545595,
1805.000,0.55495,
1804.000,0.568141,
1803.000,0.585756,
1802.000,0.607661,
1801.000,0.632601,
1800.000,0.65829,
1799.000,0.683564,
1798.000,0.708091,
1797.000,0.731062,
1796.000,0.75191,
1795.000,0.771999,
1794.000,0.794037,
1793.000,0.818143,
1792.000,0.840054,
1791.000,0.85478,
1790.000,0.861781,
1789.000,0.863808,
1788.000,0.861135,
1787.000,0.853611,
1786.000,0.84351,
1785.000,0.831907,
1784.000,0.817699,
1783.000,0.800032,
1782.000,0.779502,
1781.000,0.755879,
1780.000,0.727929,
1779.000,0.697683,
1778.000,0.668371,
1777.000,0.640487,
1776.000,0.61255,
1775.000,0.584251,
1774.000,0.555891,
1773.000,0.525622,
1772.000,0.492124,
1771.000,0.458594,
1770.000,0.430992,
1769.000,0.410641,
1768.000,0.393341,
1767.000,0.376861,
1766.000,0.362818,
1765.000,0.352547,
1764.000,0.34516,
1763.000,0.338542,
1762.000,0.330672,
1761.000,0.320285,
1760.000,0.307813,
1759.000,0.294769,
1758.000,0.281233,
1757.000,0.266357,
1756.000,0.249894,
1755.000,0.233204,
1754.000,0.217886,
1753.000,0.203684,
1752.000,0.189835,
1751.000,0.17668,
1750.000,0.164907,
1749.000,0.154426,
1748.000,0.144795,
1747.000,0.13575,
1746.000,0.127195,
1745.000,0.118617,
1744.000,0.109544,
1743.000,0.100398,
1742.000,0.0919173,
1741.000,0.0842732,
1740.000,0.0769552,
1739.000,0.0696148,
1738.000,0.0626634,
1737.000,0.0567033,
1736.000,0.0516188,
1735.000,0.0466708,
1734.000,0.0414046,
1733.000,0.0361064,
1732.000,0.0314824,
1731.000,0.0278175,
1730.000,0.0245862,
1729.000,0.0213254,
1728.000,0.0182074,
1727.000,0.015689,
1726.000,0.0137973,
1725.000,0.0119682,
1724.000,0.00977073,
1723.000,0.00757173,
1722.000,0.00623822,
1721.000,0.00591339,
1720.000,0.00582556,
1719.000,0.00541241,
1718.000,0.00457594,
1717.000,0.00343197,
1716.000,0.00228718,
1715.000,0.00139089,
1714.000,0.000914108,
1713.000,0.000851889,
1712.000,0.0011989,
1711.000,0.00183954,
1710.000,0.00223921,
1709.000,0.00251056,
1708.000,0.00284329,
1707.000,0.00298664,
1706.000,0.00334447,
1705.000,0.00416238,
1704.000,0.00518513,
1703.000,0.00654776,
1702.000,0.00859944,
1701.000,0.0116829,
1700.000,0.0158494,
1699.000,0.0204191,
1698.000,0.0247196,
1697.000,0.0290427,
1696.000,0.0340242,
1695.000,0.0395829,
1694.000,0.0455075,
1693.000,0.0521143,
1692.000,0.0596197,
1691.000,0.0681087,
1690.000,0.0775332,
1689.000,0.0879108,
1688.000,0.0994875,
1687.000,0.112626,
1686.000,0.127878,
1685.000,0.145856,
1684.000,0.166348,
1683.000,0.186054,
1682.000,0.204813,
1681.000,0.224071,
1680.000,0.239179,
1679.000,0.248553,
1678.000,0.256236,
1677.000,0.266596,
1676.000,0.28193,
1675.000,0.301014,
1674.000,0.32054,
1673.000,0.338164,
1672.000,0.354929,
1671.000,0.373253,
1670.000,0.394013,
1669.000,0.416067,
1668.000,0.437902,
1667.000,0.459025,
1666.000,0.478283,
1665.000,0.495441,
1664.000,0.512785,
1663.000,0.530045,
1662.000,0.542929,
1661.000,0.548459,
1660.000,0.547553,
1659.000,0.541428,
1658.000,0.530735,
1657.000,0.518195,
1656.000,0.508321,
1655.000,0.502272,
1654.000,0.495244,
1653.000,0.479406,
1652.000,0.452227,
1651.000,0.428056,
1650.000,0.414161,
1649.000,0.404603,
1648.000,0.398077,
1647.000,0.388757,
1646.000,0.373579,
1645.000,0.359016,
1644.000,0.349743,
1643.000,0.341704,
1642.000,0.33203,
1641.000,0.322316,
1640.000,0.313397,
1639.000,0.306522,
1638.000,0.301898,
1637.000,0.297695,
1636.000,0.291568,
1635.000,0.282942,
1634.000,0.275259,
1633.000,0.27096,
1632.000,0.267207,
1631.000,0.262376,
1630.000,0.25767,
1629.000,0.253622,
1628.000,0.250182,
1627.000,0.247005,
1626.000,0.244045,
1625.000,0.241115,
1624.000,0.237268,
1623.000,0.231611,
1622.000,0.224069,
1621.000,0.216049,
1620.000,0.208878,
1619.000,0.202441,
1618.000,0.195605,
1617.000,0.187076,
1616.000,0.176899,
1615.000,0.167499,
1614.000,0.161364,
1613.000,0.157882,
1612.000,0.155162,
1611.000,0.152477,
1610.000,0.150001,
1609.000,0.147816,
1608.000,0.14569,
1607.000,0.143633,
1606.000,0.141778,
1605.000,0.139671,
1604.000,0.136526,
1603.000,0.132461,
1602.000,0.12845,
1601.000,0.125218,
1600.000,0.122546,
1599.000,0.119606,
1598.000,0.11595,
1597.000,0.111842,
1596.000,0.107777,
1595.000,0.103919,
1594.000,0.100213,
1593.000,0.0968077,
1592.000,0.0939289,
1591.000,0.0914314,
1590.000,0.0888763,
1589.000,0.0861548,
1588.000,0.0836664,
1587.000,0.0817526,
1586.000,0.0801731,
1585.000,0.0784957,
1584.000,0.076675,
1583.000,0.0749931,
1582.000,0.0734718,
1581.000,0.0717621,
1580.000,0.0699641,
1579.000,0.0687726,
1578.000,0.0684228,
1577.000,0.0680014,
1576.000,0.0663185,
1575.000,0.0635898,
1574.000,0.0614995,
1573.000,0.0607473,
1572.000,0.0604183,
1571.000,0.059638,
1570.000,0.0582446,
1569.000,0.0565911,
1568.000,0.0551257,
1567.000,0.0541755,
1566.000,0.0536677,
1565.000,0.0534883,
1564.000,0.0536753,
1563.000,0.0540681,
1562.000,0.0543109,
1561.000,0.0542744,
1560.000,0.0539144,
1559.000,0.05343,
1558.000,0.0516516,
1557.000,0.0495121,
1556.000,0.0489648,
1555.000,0.0484809,
1554.000,0.0477412,
1553.000,0.0472155,
1552.000,0.046691,
1551.000,0.0459497,
1550.000,0.0445961,
1549.000,0.0428285,
1548.000,0.0414122,
1547.000,0.0409531,
1546.000,0.0412467,
1545.000,0.0415394,
1544.000,0.0411587,
1543.000,0.0401397,
1542.000,0.0392059,
1541.000,0.0388263,
1540.000,0.0385645,
1539.000,0.0376752,
1538.000,0.0366692,
1537.000,0.0362578,
1536.000,0.0363063,
1535.000,0.0367223,
1534.000,0.0370882,
1533.000,0.0368615,
1532.000,0.0362198,
1531.000,0.0356638,
1530.000,0.0350504,
1529.000,0.0340937,
1528.000,0.033188,
1527.000,0.0328088,
1526.000,0.0327582,
1525.000,0.0323354,
1524.000,0.0312486,
1523.000,0.0299462,
1522.000,0.0291129,
1521.000,0.0291046,
1520.000,0.0298705,
1519.000,0.0312865,
1518.000,0.0329862,
1517.000,0.0343435,
1516.000,0.0348424,
1515.000,0.0343799,
1514.000,0.0332103,
1513.000,0.0315614,
1512.000,0.029897,
1511.000,0.0288166,
1510.000,0.0284909,
1509.000,0.0287707,
1508.000,0.0293482,
1507.000,0.0298001,
1506.000,0.0295935,
1505.000,0.0291856,
1504.000,0.0287593,
1503.000,0.0275678,
1502.000,0.025978,
1501.000,0.0247069,
1500.000,0.0242158,
1499.000,0.0248579,
1498.000,0.0262174,
1497.000,0.0271707,
1496.000,0.027069,
1495.000,0.02654,
1494.000,0.0263697,
1493.000,0.0263333,
1492.000,0.0256755,
1491.000,0.0240919,
1490.000,0.0221456,
1489.000,0.0207792,
1488.000,0.0203912,
1487.000,0.0205908,
1486.000,0.0208454,
1485.000,0.0211296,
1484.000,0.021662,
1483.000,0.0223521,
1482.000,0.0227413,
1481.000,0.0224669,
1480.000,0.0217289,
1479.000,0.0210208,
1478.000,0.0205339,
1477.000,0.0201039,
1476.000,0.0196287,
1475.000,0.0193281,
1474.000,0.0195432,
1473.000,0.0202873,
1472.000,0.0213215,
1471.000,0.0224595,
1470.000,0.0233309,
1469.000,0.0234576,
1468.000,0.0228822,
1467.000,0.0220834,
1466.000,0.0213612,
1465.000,0.0207419,
1464.000,0.0204272,
1463.000,0.0208455,
1462.000,0.0218846,
1461.000,0.022777,
1460.000,0.0228545,
1459.000,0.0219464,
1458.000,0.0203512,
1457.000,0.0186774,
1456.000,0.0173921,
1455.000,0.0165163,
1454.000,0.015811,
1453.000,0.0151882,
1452.000,0.0147585,
1451.000,0.0145954,
1450.000,0.0148391,
1449.000,0.0155572,
1448.000,0.0163775,
1447.000,0.0168596,
1446.000,0.0171873,
1445.000,0.0178474,
1444.000,0.0188688,
1443.000,0.0198227,
1442.000,0.0202812,
1441.000,0.020179,
1440.000,0.019797,
1439.000,0.0194993,
1438.000,0.0195533,
1437.000,0.0201236,
1436.000,0.0210865,
1435.000,0.0219153,
1434.000,0.0221169,
1433.000,0.0217353,
1432.000,0.0212576,
1431.000,0.0210613,
1430.000,0.0210963,
1429.000,0.0210913,
1428.000,0.0208912,
1427.000,0.0204619,
1426.000,0.0197802,
1425.000,0.0188735,
1424.000,0.0179534,
1423.000,0.0173625,
1422.000,0.0172919,
1421.000,0.0176757,
1420.000,0.0183078,
1419.000,0.0189002,
1418.000,0.0190932,
1417.000,0.0188727,
1416.000,0.0186942,
1415.000,0.0189218,
1414.000,0.0194946,
1413.000,0.0201678,
1412.000,0.0207824,
1411.000,0.0211821,
1410.000,0.0212755,
1409.000,0.0212089,
1408.000,0.0211916,
1407.000,0.0212118,
1406.000,0.0209907,
1405.000,0.0202721,
1404.000,0.0191926,
1403.000,0.0181236,
1402.000,0.0173123,
1401.000,0.0169674,
1400.000,0.0172973,
1399.000,0.0181723,
1398.000,0.0189798,
1397.000,0.019191,
1396.000,0.0188339,
1395.000,0.0182588,
1394.000,0.0177893,
1393.000,0.0175931,
1392.000,0.0177477,
1391.000,0.0182699,
1390.000,0.0190213,
1389.000,0.0196953,
1388.000,0.0200404,
1387.000,0.0201187,
1386.000,0.020186,
1385.000,0.0203268,
1384.000,0.0202928,
1383.000,0.0197881,
1382.000,0.0189252,
1381.000,0.0181823,
1380.000,0.0179453,
1379.000,0.0181641,
1378.000,0.0184219,
1377.000,0.0184334,
1376.000,0.0183082,
1375.000,0.0183548,
1374.000,0.0187731,
1373.000,0.0193982,
1372.000,0.0198491,
1371.000,0.0198782,
1370.000,0.0196531,
1369.000,0.0198893,
1368.000,0.0211032,
1367.000,0.0228282,
1366.000,0.0240378,
1365.000,0.0241238,
1364.000,0.0235288,
1363.000,0.0232373,
1362.000,0.0235936,
1361.000,0.0240664,
1360.000,0.0240963,
1359.000,0.0238091,
1358.000,0.0238524,
1357.000,0.0245654,
1356.000,0.0255292,
1355.000,0.0259729,
1354.000,0.02543,
1353.000,0.024106,
1352.000,0.0226752,
1351.000,0.021731,
1350.000,0.0214916,
1349.000,0.0217874,
1348.000,0.0221506,
1347.000,0.0220693,
1346.000,0.0213849,
1345.000,0.0205145,
1344.000,0.0200821,
1343.000,0.0202474,
1342.000,0.0206249,
1341.000,0.020852,
1340.000,0.0208461,
1339.000,0.020436,
1338.000,0.0193573,
1337.000,0.0178502,
1336.000,0.0167813,
1335.000,0.0168032,
1334.000,0.0175751,
1333.000,0.0182339,
1332.000,0.0184455,
1331.000,0.0185752,
1330.000,0.0189692,
1329.000,0.0195642,
1328.000,0.0202581,
1327.000,0.0212368,
1326.000,0.0227452,
1325.000,0.0247047,
1324.000,0.0267106,
1323.000,0.0282439,
1322.000,0.0288769,
1321.000,0.0285489,
1320.000,0.0276236,
1319.000,0.0265166,
1318.000,0.0253542,
1317.000,0.0241057,
1316.000,0.0228839,
1315.000,0.0218415,
1314.000,0.0208801,
1313.000,0.0197528,
1312.000,0.0184152,
1311.000,0.0170517,
1310.000,0.0158538,
1309.000,0.0150535,
1308.000,0.0150286,
1307.000,0.0160109,
1306.000,0.0176806,
1305.000,0.0192197,
1304.000,0.0199184,
1303.000,0.0197237,
1302.000,0.0190936,
1301.000,0.0184871,
1300.000,0.0181751,
1299.000,0.0183418,
1298.000,0.0191129,
1297.000,0.0204717,
1296.000,0.0221762,
1295.000,0.0237618,
1294.000,0.0248311,
1293.000,0.0255116,
1292.000,0.0262953,
1291.000,0.0272125,
1290.000,0.0276112,
1289.000,0.0270703,
1288.000,0.0262456,
1287.000,0.0262994,
1286.000,0.0275832,
1285.000,0.0293823,
1284.000,0.0308331,
1283.000,0.031593,
1282.000,0.0316443,
1281.000,0.0311354,
1280.000,0.0305188,
1279.000,0.0302515,
1278.000,0.0302645,
1277.000,0.030134,
1276.000,0.0299209,
1275.000,0.0303803,
1274.000,0.0319526,
1273.000,0.0339559,
1272.000,0.0352162,
1271.000,0.0352793,
1270.000,0.0346207,
1269.000,0.0338269,
1268.000,0.0331567,
1267.000,0.0328222,
1266.000,0.0330277,
1265.000,0.0336843,
1264.000,0.0344821,
1263.000,0.0352633,
1262.000,0.0360626,
1261.000,0.0368121,
1260.000,0.0373224,
1259.000,0.0377355,
1258.000,0.0385202,
1257.000,0.0397064,
1256.000,0.0407461,
1255.000,0.0413699,
1254.000,0.0420399,
1253.000,0.043309,
1252.000,0.0450398,
1251.000,0.0465654,
1250.000,0.0474526,
1249.000,0.0477975,
1248.000,0.0478869,
1247.000,0.0478874,
1246.000,0.0478997,
1245.000,0.0481328,
1244.000,0.0489047,
1243.000,0.050467,
1242.000,0.0528205,
1241.000,0.055647,
1240.000,0.0584343,
1239.000,0.0608023,
1238.000,0.062717,
1237.000,0.0643102,
1236.000,0.065617,
1235.000,0.0667128,
1234.000,0.068011,
1233.000,0.069941,
1232.000,0.0720675,
1231.000,0.0728773,
1230.000,0.0709592,
1229.000,0.0662187,
1228.000,0.0596906,
1227.000,0.0524557,
1226.000,0.045116,
1225.000,0.0381949,
1224.000,0.0323574,
1223.000,0.0279801,
1222.000,0.0248853,
1221.000,0.0228028,
1220.000,0.0218671,
1219.000,0.0223099,
1218.000,0.0236884,
1217.000,0.0250929,
1216.000,0.0263371,
1215.000,0.0281466,
1214.000,0.0310871,
1213.000,0.0347205,
1212.000,0.0380034,
1211.000,0.0404669,
1210.000,0.0426294,
1209.000,0.0451854,
1208.000,0.0481146,
1207.000,0.0506895,
1206.000,0.0522545,
1205.000,0.0529199,
1204.000,0.0534866,
1203.000,0.0548341,
1202.000,0.0573965,
1201.000,0.0610482,
1200.000,0.065333,
1199.000,0.0697452,
1198.000,0.0738963,
1197.000,0.0776588,
1196.000,0.0811638,
1195.000,0.0846166,
1194.000,0.0881567,
1193.000,0.0918155,
1192.000,0.0955717,
1191.000,0.0994058,
1190.000,0.103169,
1189.000,0.106521,
1188.000,0.109334,
1187.000,0.111985,
1186.000,0.115078,
1185.000,0.119127,
1184.000,0.124219,
1183.000,0.129771,
1182.000,0.134997,
1181.000,0.139653,
1180.000,0.144164,
1179.000,0.149083,
1178.000,0.154664,
1177.000,0.160861,
1176.000,0.167418,
1175.000,0.173957,
1174.000,0.180274,
1173.000,0.186612,
1172.000,0.19336,
1171.000,0.200462,
1170.000,0.207431,
1169.000,0.213955,
1168.000,0.220046,
1167.000,0.225593,
1166.000,0.230291,
1165.000,0.234245,
1164.000,0.238186,
1163.000,0.242615,
1162.000,0.246985,
1161.000,0.250167,
1160.000,0.251545,
1159.000,0.251477,
1158.000,0.250922,
1157.000,0.25087,
1156.000,0.251826,
1155.000,0.253397,
1154.000,0.254469,
1153.000,0.25411,
1152.000,0.252333,
1151.000,0.249748,
1150.000,0.246518,
1149.000,0.242129,
1148.000,0.236207,
1147.000,0.229197,
1146.000,0.222031,
1145.000,0.215138,
1144.000,0.208132,
1143.000,0.200359,
1142.000,0.191629,
1141.000,0.182478,
1140.000,0.173721,
1139.000,0.16569,
1138.000,0.157884,
1137.000,0.149475,
1136.000,0.140256,
1135.000,0.130949,
1134.000,0.122385,
1133.000,0.114459,
1132.000,0.106144,
1131.000,0.0964939,
1130.000,0.0854533,
1129.000,0.0737994,
1128.000,0.0625991,
1127.000,0.0527856,
1126.000,0.0448116,
1125.000,0.0384767,
1124.000,0.033236,
1123.000,0.0288795,
1122.000,0.025777,
1121.000,0.0241021,
1120.000,0.0235186,
1119.000,0.023767,
1118.000,0.024971,
1117.000,0.0275858,
1116.000,0.0320319,
1115.000,0.0388571,
1114.000,0.0481348,
1113.000,0.0589772,
1112.000,0.0702904,
1111.000,0.0805722,
1110.000,0.0881413,
1109.000,0.0925687,
1108.000,0.0950661,
1107.000,0.0970769,
1106.000,0.0989808,
1105.000,0.1002,
1104.000,0.100039,
1103.000,0.0982238,
1102.000,0.0949297,
1101.000,0.0908053,
1100.000,0.0867167,
1099.000,0.0829801,
1098.000,0.0791119,
1097.000,0.0745562,
1096.000,0.0695308,
1095.000,0.0647395,
1094.000,0.0604246,
1093.000,0.0565478,
1092.000,0.0535965,
1091.000,0.0521704,
1090.000,0.0517725,
1089.000,0.0509877,
1088.000,0.049175,
1087.000,0.047034,
1086.000,0.0452222,
1085.000,0.043451,
1084.000,0.0413021,
1083.000,0.0392513,
1082.000,0.0382914,
1081.000,0.0384876,
1080.000,0.0386848,
1079.000,0.0376986,
1078.000,0.0354572,
1077.000,0.0331052,
1076.000,0.0316561,
1075.000,0.0310386,
1074.000,0.0307291,
1073.000,0.0302391,
1072.000,0.0291673,
1071.000,0.0274544,
1070.000,0.0253934,
1069.000,0.0232934,
1068.000,0.0215569,
1067.000,0.0205604,
1066.000,0.0201162,
1065.000,0.0198232,
1064.000,0.0194334,
1063.000,0.0188216,
1062.000,0.0182298,
1061.000,0.0183149,
1060.000,0.0191118,
1059.000,0.0198192,
1058.000,0.0200509,
1057.000,0.0200932,
1056.000,0.0198955,
1055.000,0.0187564,
1054.000,0.0164783,
1053.000,0.0143082,
1052.000,0.0142349,
1051.000,0.0164547,
1050.000,0.0185361,
1049.000,0.0188071,
1048.000,0.017887,
1047.000,0.017087,
1046.000,0.0167515,
1045.000,0.0166108,
1044.000,0.0169976,
1043.000,0.0181507,
1042.000,0.0192501,
1041.000,0.0191602,
1040.000,0.0177656,
1039.000,0.0160509,
1038.000,0.014623,
1037.000,0.0129734,
1036.000,0.0108466,
1035.000,0.00936401,
1034.000,0.00994415,
1033.000,0.0124007,
1032.000,0.0148624,
1031.000,0.0155301,
1030.000,0.0142229,
1029.000,0.0123224,
1028.000,0.0114653,
1027.000,0.0119904,
1026.000,0.0126988,
1025.000,0.0126097,
1024.000,0.0116178,
1023.000,0.0101545,
1022.000,0.00953338,
1021.000,0.0107561,
1020.000,0.0128806,
1019.000,0.0148237,
1018.000,0.0161514,
1017.000,0.0164816,
1016.000,0.0153607,
1015.000,0.0127718,
1014.000,0.00954452,
1013.000,0.00697927,
1012.000,0.00604259,
1011.000,0.00627722,
1010.000,0.00643358,
1009.000,0.00582612,
1008.000,0.00446462,
1007.000,0.00518605,
1006.000,0.00805911,
1005.000,0.00912687,
1004.000,0.00759866,
1003.000,0.00507122,
1002.000,0.00348982,
1001.000,0.00329206,
1000.000,0.00330036,
999.000,0.00305158,
998.000,0.00322212,
997.000,0.00385527,
996.000,0.00416266,
995.000,0.00407764,
994.000,0.00379286,
993.000,0.00326771,
992.000,0.00250424,
991.000,0.00184279,
990.000,0.00175729,
989.000,0.00218401,
988.000,0.00299324,
987.000,0.00391286,
986.000,0.00426651,
985.000,0.00373752,
984.000,0.00252109,
983.000,0.00119165,
982.000,0.00177329,
981.000,0.00275019,
980.000,0.00251989,
979.000,0.0018957,
978.000,0.0034892,
977.000,0.00606439,
976.000,0.00714114,
975.000,0.00593771,
974.000,0.00357116,
973.000,0.00189305,
972.000,0.00187759,
971.000,0.00289625,
970.000,0.00342346,
969.000,0.00282107,
968.000,0.00202088,
967.000,0.0018038,
966.000,0.00210706,
965.000,0.00275607,
964.000,0.00304446,
963.000,0.00274409,
962.000,0.00288729,
961.000,0.00442647,
960.000,0.00543654,
959.000,0.0051419,
958.000,0.00431901,
957.000,0.00411808,
956.000,0.00557533,
955.000,0.00731437,
954.000,0.00722999,
953.000,0.00488813,
952.000,0.00163676,
951.000,0.000705207,
950.000,0.000975249,
949.000,0.000691971,
948.000,0.00307822,
947.000,0.00548054,
946.000,0.0067056,
945.000,0.00640672,
944.000,0.00515276,
943.000,0.00372223,
942.000,0.0018659,
941.000,0.000499569,
940.000,0.00213685,
939.000,0.00231397,
938.000,0.00133556,
937.000,0.00115427,
936.000,0.00220315,
935.000,0.00283977,
934.000,0.00335106,
933.000,0.00500223,
932.000,0.00714706,
931.000,0.0082406,
930.000,0.00768489,
929.000,0.00595072,
928.000,0.00348164,
927.000,0.00187775,
926.000,0.00422948,
925.000,0.00627639,
924.000,0.00575335,
923.000,0.00339407,
922.000,0.00169208,
921.000,0.00163132,
920.000,0.00180356,
919.000,0.0023274,
918.000,0.00314802,
917.000,0.00310323,
916.000,0.00238124,
915.000,0.0036071,
914.000,0.00467716,
913.000,0.00374915,
912.000,0.00184659,
911.000,0.00201379,
910.000,0.00386687,
909.000,0.00517612,
908.000,0.00474657,
907.000,0.00226644,
906.000,0.00189384,
905.000,0.00416968,
904.000,0.00474323,
903.000,0.00413902,
902.000,0.00365958,
901.000,0.0034639,
900.000,0.00349875,
899.000,0.00366311,
898.000,0.00334353,
897.000,0.0021589,
896.000,0.00140183,
895.000,0.00271372,
894.000,0.00416595,
893.000,0.00451669,
892.000,0.00385034,
891.000,0.00317903,
890.000,0.00304623,
889.000,0.00226368,
888.000,0.00101286,
887.000,0.00149747,
886.000,0.00201402,
885.000,0.00415133,
884.000,0.0069763,
883.000,0.00831908,
882.000,0.00729636,
881.000,0.00442834,
880.000,0.00303184,
879.000,0.00370348,
878.000,0.00359869,
877.000,0.00329526,
876.000,0.00376637,
875.000,0.0046322,
874.000,0.00523101,
873.000,0.00533232,
872.000,0.00511869,
871.000,0.00394017,
870.000,0.00176777,
869.000,0.00116626,
868.000,0.00209882,
867.000,0.00253282,
866.000,0.00285899,
865.000,0.00250654,
864.000,0.00244843,
863.000,0.00440974,
862.000,0.00529127,
861.000,0.00362171,
860.000,0.00220091,
859.000,0.00394406,
858.000,0.00507077,
857.000,0.0047433,
856.000,0.00453461,
855.000,0.00540701,
854.000,0.0065527,
853.000,0.00722702,
852.000,0.00784996,
851.000,0.00846976,
850.000,0.00834666,
849.000,0.00749074,
848.000,0.00707629,
847.000,0.00695886,
846.000,0.00537633,
845.000,0.00255012,
844.000,0.00208144,
843.000,0.00335344,
842.000,0.00340449,
841.000,0.00277692,
840.000,0.0025332,
839.000,0.00325002,
838.000,0.0045995,
837.000,0.00539582,
836.000,0.00526302,
835.000,0.00584244,
834.000,0.00785064,
833.000,0.00981882,
832.000,0.0106325,
831.000,0.0103291,
830.000,0.00967185,
829.000,0.00874047,
828.000,0.00728587,
827.000,0.00576285,
826.000,0.0053249,
825.000,0.00617238,
824.000,0.00661216,
823.000,0.00595283,
822.000,0.00500284,
821.000,0.00480044,
820.000,0.00576555,
819.000,0.00660673,
818.000,0.00611151,
817.000,0.00464749,
816.000,0.00319619,
815.000,0.00241964,
814.000,0.00300127,
813.000,0.00477142,
812.000,0.00575046,
811.000,0.00500176,
810.000,0.00480281,
809.000,0.0058625,
808.000,0.0060076,
807.000,0.0055964,
806.000,0.00608437,
805.000,0.00602424,
804.000,0.00453562,
803.000,0.00281397,
802.000,0.00221803,
801.000,0.0016636,
800.000,0.000759916,
799.000,0.0036705,
798.000,0.0080027,
797.000,0.0105582,
796.000,0.00958775,
795.000,0.00521509,
794.000,0.00332869,
793.000,0.00545499,
792.000,0.00573817,
791.000,0.0065256,
790.000,0.00980297,
789.000,0.012144,
788.000,0.0115873,
787.000,0.00876411,
786.000,0.00607093,
785.000,0.00455302,
784.000,0.00285981,
783.000,0.00092679,
782.000,0.00115462,
781.000,0.00279791,
780.000,0.0038244,
779.000,0.00314767,
778.000,0.00284601,
777.000,0.00604366,
776.000,0.00937797,
775.000,0.0106607,
774.000,0.0100093,
773.000,0.00827294,
772.000,0.00613283,
771.000,0.00416676,
770.000,0.00215752,
769.000,0.000792725,
768.000,0.00242125,
767.000,0.00438739,
766.000,0.00570518,
765.000,0.00618408,
764.000,0.00670201,
763.000,0.00786401,
762.000,0.00782241,
761.000,0.0065014,
760.000,0.00609429,
759.000,0.0065199,
758.000,0.0059857,
757.000,0.00629084,
756.000,0.00832226,
755.000,0.00959775,
754.000,0.00875912,
753.000,0.00760072,
752.000,0.00930106,
751.000,0.0128707,
750.000,0.0150514,
749.000,0.0146412,
748.000,0.0125638,
747.000,0.0104287,
746.000,0.00887693,
745.000,0.00809551,
744.000,0.00821303,
743.000,0.00828407,
742.000,0.00711212,
741.000,0.0049091,
740.000,0.00400877,
739.000,0.00361052,
738.000,0.00178093,
737.000,0.00350839,
736.000,0.00687016,
735.000,0.00809816,
734.000,0.00527438,
733.000,0.00120265,
732.000,0.00398667,
731.000,0.00445239,
730.000,0.00391052,
729.000,0.00735832,
728.000,0.0101296,
727.000,0.0108649,
726.000,0.00947127,
725.000,0.00640604,
724.000,0.00401039,
723.000,0.00503478,
722.000,0.00694829,
721.000,0.00820026,
720.000,0.00920017,
719.000,0.00954039,
718.000,0.00944348,
717.000,0.00975854,
716.000,0.0107757,
715.000,0.0113866,
714.000,0.0103719,
713.000,0.0084539,
712.000,0.00668281,
711.000,0.00569868,
710.000,0.00679477,
709.000,0.0074929,
708.000,0.00521021,
707.000,0.00506916,
706.000,0.00933663,
705.000,0.0116036,
704.000,0.0107036,
703.000,0.00815631,
702.000,0.00553295,
701.000,0.00342944,
700.000,0.00137846,
699.000,0.00311228,
698.000,0.00692931,
697.000,0.00786883,
696.000,0.00441298,
695.000,0.0032914,
694.000,0.00754732,
693.000,0.00932247,
692.000,0.0081937,
691.000,0.00636623,
690.000,0.00434245,
689.000,0.00175839,
688.000,0.00236055,
687.000,0.00766568,
686.000,0.0115312,
685.000,0.0113126,
684.000,0.00825785,
683.000,0.00402025,
682.000,0.00119029,
681.000,0.00259961,
680.000,0.00339408,
679.000,0.00305883,
678.000,0.00552415,
677.000,0.00852549,
676.000,0.00932369,
675.000,0.00751901,
674.000,0.00474668,
673.000,0.00252683,
672.000,0.00267478,
671.000,0.00570224,
670.000,0.00917745,
669.000,0.0124921,
668.000,0.0154207,
667.000,0.0163641,
666.000,0.0143185,
665.000,0.0100634,
664.000,0.00630008,
663.000,0.00528979,
662.000,0.00656336,
661.000,0.00764455,
660.000,0.00777699,
659.000,0.00650934,
658.000,0.00496465,
657.000,0.00258209,
656.000,0.00153793,
655.000,0.00729371,
654.000,0.0114026,
653.000,0.0111521,
652.000,0.00640854,
651.000,0.00196196,
650.000,0.00514448,
649.000,0.00661041,
648.000,0.00401457,
647.000,0.00230342,
646.000,0.00476421,
645.000,0.00754543,
644.000,0.00969697,
643.000,0.0131162,
642.000,0.0161975,
641.000,0.0169748,
640.000,0.0143842,
639.000,0.00923973,
638.000,0.00455849,
637.000,0.00459481,
636.000,0.0050691,
635.000,0.0040379,
634.000,0.00345419,
633.000,0.00208958,
632.000,0.00357706,
631.000,0.00772844,
630.000,0.00962396,
629.000,0.00781851,
628.000,0.00431851,
627.000,0.00416162,
626.000,0.00634721,
625.000,0.00743845,
624.000,0.00832365,
623.000,0.00918788,
622.000,0.00907321,
621.000,0.00712526,
620.000,0.00453941,
619.000,0.00413628,
618.000,0.00437412,
617.000,0.00204163,
616.000,0.00198239,
615.000,0.00621057,
614.000,0.00908242,
613.000,0.0109863,
612.000,0.0133619,
611.000,0.0150472,
610.000,0.0145011,
609.000,0.011686,
608.000,0.00797869,
607.000,0.00458624,
606.000,0.00169813,
605.000,0.00074739,
604.000,0.00217266,
603.000,0.00335318,
602.000,0.00607253,
601.000,0.00789837,
600.000,0.00396126,
599.000,0.002873,
598.000,0.0086048,
597.000,0.0111316,
596.000,0.0107516,
595.000,0.0116308,
594.000,0.0117124,
593.000,0.0095236,
592.000,0.00547815,
591.000,0.00168911,
590.000,0.00175784,
589.000,0.0037506,
588.000,0.00409123,
587.000,0.00316003,
586.000,0.00284412,
585.000,0.0064285,
584.000,0.0116889,
583.000,0.0149738,
582.000,0.0148193,
581.000,0.0118142,
580.000,0.00814934,
579.000,0.00569184,
578.000,0.00565575,
577.000,0.00552499,
576.000,0.00396621,
575.000,0.00209167,
574.000,0.000579647,
573.000,0.00133829,
572.000,0.00356843,
571.000,0.00500145,
570.000,0.00522963,
569.000,0.00599886,
568.000,0.00842245,
567.000,0.00789886,
566.000,0.00421064,
565.000,0.00328441,
564.000,0.00683102,
563.000,0.0124974,
562.000,0.0177979,
561.000,0.0213348,
560.000,0.0222407,
559.000,0.0178287,
558.000,0.0130571,
557.000,0.0164671,
556.000,0.0219548,
555.000,0.0227129,
554.000,0.0216676,
553.000,0.0203737,
552.000,0.0178178,
551.000,0.00902837,
550.000,0.00366296,
549.000,0.00969186,
548.000,0.0101119,
547.000,0.00706577,
546.000,0.00574108,
545.000,0.00584993,
544.000,0.00514213,
543.000,0.00131683,
542.000,0.00539889,
541.000,0.0150543,
540.000,0.0244413,
539.000,0.029075,
538.000,0.0244713,
537.000,0.0168612,
536.000,0.0153351,
535.000,0.0205702,
534.000,0.0304216,
533.000,0.0418285,
532.000,0.0483291,
531.000,0.046765,
530.000,0.0401641,
529.000,0.0336085,
528.000,0.0289863,
527.000,0.0270816,
526.000,0.0276723,
525.000,0.0292481,
524.000,0.0288577,
523.000,0.0233542,
522.000,0.0169142,
521.000,0.0165669,
520.000,0.020387,
519.000,0.0227534,
518.000,0.0213605,
517.000,0.016691,
516.000,0.0119228,
515.000,0.0095071,
514.000,0.0101275,
513.000,0.00965162,
512.000,0.00812825,
511.000,0.011154,
510.000,0.0119562,
509.000,0.00933607,
508.000,0.00603702,
507.000,0.00621039,
506.000,0.010613,
505.000,0.0151812,
504.000,0.013801,
503.000,0.00507864,
502.000,0.0113817,
501.000,0.0266955,
500.000,0.0341344,
499.000,0.035837,
498.000,0.0361686,
497.000,0.0339216,
496.000,0.0256037,
495.000,0.0106591,
494.000,0.00524593,
493.000,0.0182878,
492.000,0.0247197,
491.000,0.0256284,
490.000,0.0297164,
489.000,0.0332937,
488.000,0.0324473,
487.000,0.0267312,
486.000,0.0290575,
485.000,0.0396431,
484.000,0.0459629,
483.000,0.0451254,
482.000,0.0411373,
481.000,0.0371067,
480.000,0.0347282,
479.000,0.0338597,
478.000,0.0340401,
477.000,0.040415,
476.000,0.0494746,
475.000,0.0540959,
474.000,0.0424295,
473.000,0.0165001,
472.000,0.0156332,
471.000,0.0317903,
470.000,0.0366014,
469.000,0.0336942,
468.000,0.0264174,
467.000,0.0153851,
466.000,0.00937621,
465.000,0.0199402,
464.000,0.0386515,
463.000,0.0549087,
462.000,0.0587959,
461.000,0.0432684,
460.000,0.0204644,
459.000,0.0168509,
458.000,0.0335519,
457.000,0.0513297,
456.000,0.056811,
455.000,0.0502017,
454.000,0.0317936,
453.000,0.00777225,
452.000,0.00912449,
451.000,0.0193465,
450.000,0.0196748,
449.000,0.0152404,
448.000,0.00586224,
447.000,0.0130456,
446.000,0.0198663,
445.000,0.0256952,
444.000,0.0599673,
443.000,0.0933679,
442.000,0.0975515,
441.000,0.0802534,
440.000,0.0653544,
439.000,0.0602176,
438.000,0.0503557,
437.000,0.0448475,
436.000,0.0552914,
435.000,0.0690254,
434.000,0.0814717,
433.000,0.084595,
432.000,0.0685971,
431.000,0.0359124,
430.000,0.0132997,
429.000,0.00788767,
428.000,0.00391565,
427.000,0.0202735,
426.000,0.0355474,
425.000,0.0399508,
424.000,0.024431,
423.000,0.0114228,
422.000,0.0410208,
421.000,0.0660834,
420.000,0.0807593,
419.000,0.0902557,
418.000,0.089678,
417.000,0.0843786,
416.000,0.0742638,
415.000,0.0661039,
414.000,0.0495438,
413.000,0.0275427,
412.000,0.0295,
411.000,0.0395386,
410.000,0.0397432,
409.000,0.0526654,
408.000,0.0732585,
407.000,0.086577,
406.000,0.0820851,
405.000,0.0475763,
404.000,0.0436467,
403.000,0.0953872,
402.000,0.133843,
401.000,0.138042,
400.000,0.119973,
