,2-PROPANONE,
Wavenumbers [1/cm],Transmittance,
4000.273,0.888,
3999.233,0.888,
3998.194,0.888,
3997.154,0.888,
3996.114,0.8882,
3995.075,0.8887,
3994.035,0.889,
3992.996,0.889,
3991.956,0.8888,
3990.916,0.8883,
3989.877,0.888,
3988.837,0.888,
3987.797,0.8892,
3986.758,0.8922,
3985.718,0.895,
3984.678,0.8975,
3983.639,0.8992,
3982.599,0.8997,
3981.559,0.9,
3980.520,0.9,
3979.480,0.9,
3978.441,0.9,
3977.401,0.9004,
3976.361,0.9014,
3975.322,0.9022,
3974.282,0.9027,
3973.242,0.903,
3972.203,0.903,
3971.163,0.9034,
3970.123,0.9044,
3969.084,0.9052,
3968.044,0.9057,
3967.005,0.906,
3965.965,0.906,
3964.925,0.906,
3963.886,0.906,
3962.846,0.906,
3961.806,0.906,
3960.767,0.9064,
3959.727,0.9074,
3958.687,0.908,
3957.648,0.908,
3956.608,0.908,
3955.568,0.908,
3954.529,0.908,
3953.489,0.908,
3952.450,0.908,
3951.410,0.908,
3950.370,0.908,
3949.331,0.908,
3948.291,0.9082,
3947.251,0.9087,
3946.212,0.909,
3945.172,0.909,
3944.132,0.909,
3943.093,0.909,
3942.053,0.9088,
3941.014,0.9083,
3939.974,0.9076,
3938.934,0.9066,
3937.895,0.9058,
3936.855,0.9053,
3935.815,0.9046,
3934.776,0.9036,
3933.736,0.9028,
3932.696,0.9023,
3931.657,0.902,
3930.617,0.902,
3929.577,0.902,
3928.538,0.902,
3927.498,0.902,
3926.459,0.902,
3925.419,0.9016,
3924.379,0.9006,
3923.340,0.9,
3922.300,0.9,
3921.260,0.9,
3920.221,0.9,
3919.181,0.9,
3918.141,0.9,
3917.102,0.8998,
3916.062,0.8993,
3915.023,0.899,
3913.983,0.899,
3912.943,0.899,
3911.904,0.899,
3910.864,0.899,
3909.824,0.899,
3908.785,0.899,
3907.745,0.899,
3906.705,0.899,
3905.666,0.899,
3904.626,0.899,
3903.586,0.899,
3902.547,0.899,
3901.507,0.899,
3900.468,0.899,
3899.428,0.899,
3898.388,0.8992,
3897.349,0.8997,
3896.309,0.9,
3895.269,0.9,
3894.230,0.9004,
3893.190,0.9014,
3892.150,0.902,
3891.111,0.902,
3890.071,0.9022,
3889.032,0.9027,
3887.992,0.9034,
3886.952,0.9044,
3885.913,0.905,
3884.873,0.905,
3883.833,0.9056,
3882.794,0.9071,
3881.754,0.9082,
3880.714,0.9087,
3879.675,0.909,
3878.635,0.909,
3877.595,0.909,
3876.556,0.909,
3875.516,0.9094,
3874.477,0.9104,
3873.437,0.911,
3872.397,0.911,
3871.358,0.911,
3870.318,0.911,
3869.278,0.911,
3868.239,0.911,
3867.199,0.911,
3866.159,0.911,
3865.120,0.911,
3864.080,0.911,
3863.041,0.911,
3862.001,0.911,
3860.961,0.911,
3859.922,0.911,
3858.882,0.911,
3857.842,0.911,
3856.803,0.9106,
3855.763,0.9096,
3854.723,0.9088,
3853.684,0.9083,
3852.644,0.908,
3851.604,0.908,
3850.565,0.9076,
3849.525,0.9066,
3848.486,0.9058,
3847.446,0.9053,
3846.406,0.9046,
3845.367,0.9036,
3844.327,0.9028,
3843.287,0.9023,
3842.248,0.9016,
3841.208,0.9006,
3840.168,0.9,
3839.129,0.9,
3838.089,0.9,
3837.050,0.9,
3836.010,0.8998,
3834.970,0.8993,
3833.931,0.899,
3832.891,0.899,
3831.851,0.899,
3830.812,0.899,
3829.772,0.899,
3828.732,0.899,
3827.693,0.8986,
3826.653,0.8976,
3825.613,0.8968,
3824.574,0.8963,
3823.534,0.896,
3822.495,0.896,
3821.455,0.896,
3820.415,0.896,
3819.376,0.896,
3818.336,0.896,
3817.296,0.896,
3816.257,0.896,
3815.217,0.896,
3814.177,0.896,
3813.138,0.8962,
3812.098,0.8967,
3811.059,0.897,
3810.019,0.897,
3808.979,0.897,
3807.940,0.897,
3806.900,0.8968,
3805.860,0.8963,
3804.821,0.896,
3803.781,0.896,
3802.741,0.8962,
3801.702,0.8967,
3800.662,0.897,
3799.622,0.897,
3798.583,0.8974,
3797.543,0.8984,
3796.504,0.899,
3795.464,0.899,
3794.424,0.899,
3793.385,0.899,
3792.345,0.899,
3791.305,0.899,
3790.266,0.8986,
3789.226,0.8976,
3788.186,0.897,
3787.147,0.897,
3786.107,0.8964,
3785.068,0.8949,
3784.028,0.894,
3782.988,0.894,
3781.949,0.894,
3780.909,0.894,
3779.869,0.8944,
3778.830,0.8954,
3777.790,0.896,
3776.750,0.896,
3775.711,0.8962,
3774.671,0.8967,
3773.631,0.8974,
3772.592,0.8984,
3771.552,0.899,
3770.513,0.899,
3769.473,0.8992,
3768.433,0.8997,
3767.394,0.9,
3766.354,0.9,
3765.314,0.9,
3764.275,0.9,
3763.235,0.9,
3762.195,0.9,
3761.156,0.9,
3760.116,0.9,
3759.077,0.9,
3758.037,0.9,
3756.997,0.9004,
3755.958,0.9014,
3754.918,0.9016,
3753.878,0.9006,
3752.839,0.9,
3751.799,0.9,
3750.759,0.9,
3749.720,0.9,
3748.680,0.9,
3747.640,0.9,
3746.601,0.9,
3745.561,0.9,
3744.522,0.9,
3743.482,0.9,
3742.442,0.9,
3741.403,0.9,
3740.363,0.9,
3739.323,0.9,
3738.284,0.9,
3737.244,0.9,
3736.204,0.9,
3735.165,0.9,
3734.125,0.9,
3733.086,0.9,
3732.046,0.8998,
3731.006,0.8993,
3729.967,0.8986,
3728.927,0.8976,
3727.887,0.8968,
3726.848,0.8963,
3725.808,0.896,
3724.768,0.896,
3723.729,0.8956,
3722.689,0.8946,
3721.649,0.8936,
3720.610,0.8926,
3719.570,0.892,
3718.531,0.892,
3717.491,0.8915,
3716.451,0.89,
3715.412,0.8888,
3714.372,0.8883,
3713.332,0.8875,
3712.293,0.886,
3711.253,0.8846,
3710.213,0.8837,
3709.174,0.8825,
3708.134,0.881,
3707.095,0.8795,
3706.055,0.878,
3705.015,0.8768,
3703.976,0.8763,
3702.936,0.8755,
3701.896,0.874,
3700.857,0.8716,
3699.817,0.8676,
3698.777,0.8645,
3697.738,0.863,
3696.698,0.8616,
3695.658,0.8606,
3694.619,0.8598,
3693.579,0.8593,
3692.540,0.8592,
3691.500,0.8597,
3690.460,0.861,
3689.421,0.864,
3688.381,0.8672,
3687.341,0.8707,
3686.302,0.8742,
3685.262,0.8777,
3684.222,0.881,
3683.183,0.8841,
3682.143,0.8864,
3681.104,0.8874,
3680.064,0.888,
3679.024,0.888,
3677.985,0.8882,
3676.945,0.8887,
3675.905,0.889,
3674.866,0.889,
3673.826,0.8893,
3672.786,0.8903,
3671.747,0.8912,
3670.707,0.8917,
3669.667,0.892,
3668.628,0.892,
3667.588,0.892,
3666.549,0.892,
3665.509,0.892,
3664.469,0.892,
3663.430,0.892,
3662.390,0.892,
3661.350,0.892,
3660.311,0.892,
3659.271,0.892,
3658.231,0.892,
3657.192,0.8918,
3656.152,0.8913,
3655.113,0.891,
3654.073,0.891,
3653.033,0.891,
3651.994,0.891,
3650.954,0.8907,
3649.914,0.8897,
3648.875,0.889,
3647.835,0.889,
3646.795,0.889,
3645.756,0.889,
3644.716,0.889,
3643.676,0.889,
3642.637,0.889,
3641.597,0.889,
3640.558,0.889,
3639.518,0.889,
3638.478,0.889,
3637.439,0.889,
3636.399,0.889,
3635.359,0.889,
3634.320,0.8893,
3633.280,0.8903,
3632.240,0.891,
3631.201,0.891,
3630.161,0.891,
3629.122,0.891,
3628.082,0.8912,
3627.042,0.8917,
3626.003,0.892,
3624.963,0.892,
3623.923,0.892,
3622.884,0.892,
3621.844,0.892,
3620.804,0.892,
3619.765,0.892,
3618.725,0.892,
3617.685,0.892,
3616.646,0.892,
3615.606,0.892,
3614.567,0.892,
3613.527,0.892,
3612.487,0.892,
3611.448,0.892,
3610.408,0.892,
3609.368,0.892,
3608.329,0.892,
3607.289,0.892,
3606.249,0.892,
3605.210,0.8923,
3604.170,0.8933,
3603.131,0.8943,
3602.091,0.8953,
3601.051,0.896,
3600.012,0.896,
3598.972,0.8962,
3597.932,0.8967,
3596.893,0.897,
3595.853,0.897,
3594.813,0.8973,
3593.774,0.8983,
3592.734,0.8995,
3591.694,0.901,
3590.655,0.902,
3589.615,0.902,
3588.576,0.902,
3587.536,0.902,
3586.496,0.9012,
3585.457,0.8987,
3584.417,0.8957,
3583.377,0.8917,
3582.338,0.8884,
3581.298,0.8864,
3580.258,0.884,
3579.219,0.881,
3578.179,0.8787,
3577.140,0.8777,
3576.100,0.877,
3575.060,0.877,
3574.021,0.8768,
3572.981,0.8763,
3571.941,0.876,
3570.902,0.876,
3569.862,0.8757,
3568.822,0.8747,
3567.783,0.874,
3566.743,0.874,
3565.703,0.874,
3564.664,0.874,
3563.624,0.874,
3562.585,0.874,
3561.545,0.8738,
3560.505,0.8733,
3559.466,0.873,
3558.426,0.873,
3557.386,0.8727,
3556.347,0.8717,
3555.307,0.8708,
3554.267,0.8703,
3553.228,0.87,
3552.188,0.87,
3551.149,0.8697,
3550.109,0.8687,
3549.069,0.868,
3548.030,0.868,
3546.990,0.868,
3545.950,0.868,
3544.911,0.868,
3543.871,0.868,
3542.831,0.868,
3541.792,0.868,
3540.752,0.868,
3539.712,0.868,
3538.673,0.868,
3537.633,0.868,
3536.594,0.868,
3535.554,0.868,
3534.514,0.868,
3533.475,0.868,
3532.435,0.868,
3531.395,0.868,
3530.356,0.868,
3529.316,0.868,
3528.276,0.868,
3527.237,0.868,
3526.197,0.868,
3525.158,0.868,
3524.118,0.868,
3523.078,0.868,
3522.039,0.868,
3520.999,0.868,
3519.959,0.868,
3518.920,0.868,
3517.880,0.8683,
3516.840,0.8693,
3515.801,0.87,
3514.761,0.87,
3513.721,0.87,
3512.682,0.87,
3511.642,0.87,
3510.603,0.87,
3509.563,0.87,
3508.523,0.87,
3507.484,0.87,
3506.444,0.87,
3505.404,0.87,
3504.365,0.87,
3503.325,0.8694,
3502.285,0.8674,
3501.246,0.866,
3500.206,0.866,
3499.167,0.8658,
3498.127,0.8653,
3497.087,0.865,
3496.048,0.865,
3495.008,0.8652,
3493.968,0.8657,
3492.929,0.8663,
3491.889,0.8673,
3490.849,0.868,
3489.810,0.868,
3488.770,0.8683,
3487.730,0.8693,
3486.691,0.87,
3485.651,0.87,
3484.612,0.8702,
3483.572,0.8707,
3482.532,0.871,
3481.493,0.871,
3480.453,0.871,
3479.413,0.871,
3478.374,0.871,
3477.334,0.871,
3476.294,0.8709,
3475.255,0.8703,
3474.215,0.8697,
3473.175,0.8687,
3472.136,0.8675,
3471.096,0.866,
3470.057,0.8641,
3469.017,0.8611,
3467.977,0.8585,
3466.938,0.857,
3465.898,0.8555,
3464.858,0.854,
3463.819,0.8521,
3462.779,0.8491,
3461.739,0.8467,
3460.700,0.8457,
3459.660,0.8449,
3458.621,0.8444,
3457.581,0.844,
3456.541,0.844,
3455.502,0.844,
3454.462,0.844,
3453.422,0.844,
3452.383,0.844,
3451.343,0.844,
3450.303,0.844,
3449.264,0.844,
3448.224,0.844,
3447.184,0.8437,
3446.145,0.8427,
3445.105,0.8412,
3444.066,0.8388,
3443.026,0.8366,
3441.986,0.8351,
3440.947,0.833,
3439.907,0.8295,
3438.867,0.8257,
3437.828,0.8212,
3436.788,0.816,
3435.748,0.809,
3434.709,0.8011,
3433.669,0.791,
3432.630,0.7817,
3431.590,0.7742,
3430.550,0.766,
3429.511,0.756,
3428.471,0.7472,
3427.431,0.7412,
3426.392,0.7349,
3425.352,0.7279,
3424.312,0.7227,
3423.273,0.7217,
3422.233,0.7214,
3421.193,0.7229,
3420.154,0.7272,
3419.114,0.7382,
3418.075,0.749,
3417.035,0.7595,
3415.995,0.7706,
3414.956,0.7831,
3413.916,0.7957,
3412.876,0.8088,
3411.837,0.8198,
3410.797,0.8258,
3409.757,0.8327,
3408.718,0.8417,
3407.678,0.8498,
3406.639,0.8558,
3405.599,0.8604,
3404.559,0.8619,
3403.520,0.8642,
3402.480,0.8682,
3401.440,0.8719,
3400.401,0.8749,
3399.361,0.8774,
3398.321,0.8789,
3397.282,0.8804,
3396.242,0.8819,
3395.202,0.8834,
3394.163,0.8849,
3393.123,0.8864,
3392.084,0.8879,
3391.044,0.889,
3390.004,0.889,
3388.965,0.8894,
3387.925,0.8909,
3386.885,0.892,
3385.846,0.892,
3384.806,0.8923,
3383.766,0.8933,
3382.727,0.8944,
3381.687,0.8959,
3380.648,0.897,
3379.608,0.897,
3378.568,0.897,
3377.529,0.897,
3376.489,0.897,
3375.449,0.897,
3374.410,0.8973,
3373.370,0.8983,
3372.330,0.899,
3371.291,0.899,
3370.251,0.899,
3369.211,0.899,
3368.172,0.899,
3367.132,0.899,
3366.093,0.899,
3365.053,0.899,
3364.013,0.8991,
3362.974,0.8996,
3361.934,0.9,
3360.894,0.9,
3359.855,0.9,
3358.815,0.9,
3357.775,0.9,
3356.736,0.9,
3355.696,0.9,
3354.657,0.9,
3353.617,0.9,
3352.577,0.9,
3351.538,0.9,
3350.498,0.9,
3349.458,0.9,
3348.419,0.9,
3347.379,0.9,
3346.339,0.9,
3345.300,0.9,
3344.260,0.9,
3343.220,0.9,
3342.181,0.9,
3341.141,0.9,
3340.102,0.9,
3339.062,0.9,
3338.022,0.9,
3336.983,0.9003,
3335.943,0.9013,
3334.903,0.9017,
3333.864,0.9007,
3332.824,0.9,
3331.784,0.9,
3330.745,0.9,
3329.705,0.9,
3328.666,0.9,
3327.626,0.9,
3326.586,0.9,
3325.547,0.9,
3324.507,0.9,
3323.467,0.9,
3322.428,0.9,
3321.388,0.9,
3320.348,0.9,
3319.309,0.9,
3318.269,0.9,
3317.229,0.9,
3316.190,0.9,
3315.150,0.9,
3314.111,0.9,
3313.071,0.9,
3312.031,0.8999,
3310.992,0.8994,
3309.952,0.899,
3308.912,0.899,
3307.873,0.899,
3306.833,0.899,
3305.793,0.899,
3304.754,0.899,
3303.714,0.899,
3302.675,0.899,
3301.635,0.8987,
3300.595,0.8977,
3299.556,0.897,
3298.516,0.897,
3297.476,0.897,
3296.437,0.897,
3295.397,0.8966,
3294.357,0.8951,
3293.318,0.8936,
3292.278,0.8921,
3291.238,0.8907,
3290.199,0.8897,
3289.159,0.8889,
3288.120,0.8884,
3287.080,0.888,
3286.040,0.888,
3285.001,0.8877,
3283.961,0.8867,
3282.921,0.8859,
3281.882,0.8854,
3280.842,0.885,
3279.802,0.885,
3278.763,0.8847,
3277.723,0.8837,
3276.684,0.883,
3275.644,0.883,
3274.604,0.883,
3273.565,0.883,
3272.525,0.883,
3271.485,0.883,
3270.446,0.8829,
3269.406,0.8824,
3268.366,0.882,
3267.327,0.882,
3266.287,0.8817,
3265.247,0.8807,
3264.208,0.8799,
3263.168,0.8794,
3262.129,0.879,
3261.089,0.879,
3260.049,0.879,
3259.010,0.879,
3257.970,0.879,
3256.930,0.879,
3255.891,0.879,
3254.851,0.879,
3253.811,0.879,
3252.772,0.879,
3251.732,0.879,
3250.693,0.879,
3249.653,0.879,
3248.613,0.879,
3247.574,0.879,
3246.534,0.879,
3245.494,0.8791,
3244.455,0.8796,
3243.415,0.88,
3242.375,0.88,
3241.336,0.8799,
3240.296,0.8794,
3239.256,0.879,
3238.217,0.879,
3237.177,0.879,
3236.138,0.879,
3235.098,0.8787,
3234.058,0.8777,
3233.019,0.877,
3231.979,0.877,
3230.939,0.8772,
3229.900,0.8782,
3228.860,0.8788,
3227.820,0.8778,
3226.781,0.877,
3225.741,0.877,
3224.702,0.8769,
3223.662,0.8764,
3222.622,0.876,
3221.583,0.876,
3220.543,0.8757,
3219.503,0.8747,
3218.464,0.874,
3217.424,0.874,
3216.384,0.874,
3215.345,0.874,
3214.305,0.874,
3213.265,0.874,
3212.226,0.874,
3211.186,0.874,
3210.147,0.874,
3209.107,0.874,
3208.067,0.874,
3207.028,0.874,
3205.988,0.874,
3204.948,0.874,
3203.909,0.8739,
3202.869,0.8734,
3201.829,0.873,
3200.790,0.873,
3199.750,0.8726,
3198.711,0.8711,
3197.671,0.87,
3196.631,0.87,
3195.592,0.8698,
3194.552,0.8688,
3193.512,0.868,
3192.473,0.868,
3191.433,0.8678,
3190.393,0.8668,
3189.354,0.866,
3188.314,0.866,
3187.274,0.866,
3186.235,0.866,
3185.195,0.8659,
3184.156,0.8654,
3183.116,0.865,
3182.076,0.865,
3181.037,0.865,
3179.997,0.865,
3178.957,0.8647,
3177.918,0.8638,
3176.878,0.863,
3175.838,0.863,
3174.799,0.8629,
3173.759,0.8624,
3172.720,0.8618,
3171.680,0.8608,
3170.640,0.8599,
3169.601,0.8594,
3168.561,0.8588,
3167.521,0.8578,
3166.482,0.8569,
3165.442,0.8564,
3164.402,0.856,
3163.363,0.856,
3162.323,0.8557,
3161.283,0.8548,
3160.244,0.854,
3159.204,0.854,
3158.165,0.8539,
3157.125,0.8534,
3156.085,0.853,
3155.046,0.853,
3154.006,0.853,
3152.966,0.853,
3151.927,0.8526,
3150.887,0.8511,
3149.847,0.85,
3148.808,0.85,
3147.768,0.85,
3146.729,0.85,
3145.689,0.8498,
3144.649,0.8488,
3143.610,0.8477,
3142.570,0.8461,
3141.530,0.8449,
3140.491,0.8444,
3139.451,0.844,
3138.411,0.844,
3137.372,0.8435,
3136.332,0.8415,
3135.292,0.84,
3134.253,0.84,
3133.213,0.8396,
3132.174,0.8381,
3131.134,0.8366,
3130.094,0.8352,
3129.055,0.8339,
3128.015,0.8334,
3126.975,0.833,
3125.936,0.833,
3124.896,0.8328,
3123.856,0.8318,
3122.817,0.8309,
3121.777,0.8304,
3120.738,0.83,
3119.698,0.83,
3118.658,0.8296,
3117.619,0.8281,
3116.579,0.8266,
3115.539,0.8251,
3114.500,0.8236,
3113.460,0.8221,
3112.420,0.8207,
3111.381,0.8192,
3110.341,0.8174,
3109.301,0.8149,
3108.262,0.8127,
3107.222,0.8112,
3106.183,0.8097,
3105.143,0.8082,
3104.103,0.8067,
3103.064,0.8052,
3102.024,0.8037,
3100.984,0.8022,
3099.945,0.8004,
3098.905,0.7979,
3097.865,0.7956,
3096.826,0.7941,
3095.786,0.7926,
3094.747,0.7912,
3093.707,0.7897,
3092.667,0.7882,
3091.628,0.7863,
3090.588,0.7833,
3089.548,0.7807,
3088.509,0.7792,
3087.469,0.7778,
3086.429,0.7768,
3085.390,0.7756,
3084.350,0.7736,
3083.310,0.7718,
3082.271,0.7708,
3081.231,0.7697,
3080.192,0.7682,
3079.152,0.767,
3078.112,0.767,
3077.073,0.7669,
3076.033,0.7664,
3074.993,0.7658,
3073.954,0.7648,
3072.914,0.7634,
3071.874,0.7609,
3070.835,0.7587,
3069.795,0.7572,
3068.756,0.7557,
3067.716,0.7542,
3066.676,0.753,
3065.637,0.753,
3064.597,0.7529,
3063.557,0.7524,
3062.518,0.7515,
3061.478,0.749,
3060.438,0.7469,
3059.399,0.7464,
3058.359,0.7458,
3057.319,0.7448,
3056.280,0.7437,
3055.240,0.7422,
3054.201,0.7406,
3053.161,0.7386,
3052.121,0.7364,
3051.082,0.7339,
3050.042,0.7315,
3049.002,0.729,
3047.963,0.7266,
3046.923,0.7246,
3045.883,0.7224,
3044.844,0.7194,
3043.804,0.7162,
3042.765,0.7122,
3041.725,0.7081,
3040.685,0.7036,
3039.646,0.6989,
3038.606,0.6933,
3037.566,0.6876,
3036.527,0.6817,
3035.487,0.6754,
3034.447,0.6684,
3033.408,0.6613,
3032.368,0.6539,
3031.328,0.6461,
3030.289,0.6377,
3029.249,0.6284,
3028.210,0.6164,
3027.170,0.605,
3026.130,0.5955,
3025.091,0.5846,
3024.051,0.5687,
3023.011,0.5542,
3021.972,0.5457,
3020.932,0.5298,
3019.892,0.4848,
3018.853,0.4462,
3017.813,0.4326,
3016.774,0.4208,
3015.734,0.4153,
3014.694,0.4103,
3013.655,0.4073,
3012.615,0.405,
3011.575,0.405,
3010.536,0.4069,
3009.496,0.4159,
3008.456,0.429,
3007.417,0.4575,
3006.377,0.4825,
3005.337,0.4945,
3004.298,0.5064,
3003.258,0.5179,
3002.219,0.5306,
3001.179,0.548,
3000.139,0.5648,
2999.100,0.5788,
2998.060,0.5921,
2997.020,0.6027,
2995.981,0.6125,
2994.941,0.6195,
2993.901,0.6262,
2992.862,0.6317,
2991.822,0.6364,
2990.783,0.6384,
2989.743,0.6403,
2988.703,0.6418,
2987.664,0.6432,
2986.624,0.6442,
2985.584,0.6436,
2984.545,0.6366,
2983.505,0.6293,
2982.465,0.6208,
2981.426,0.6123,
2980.386,0.6038,
2979.346,0.5954,
2978.307,0.5874,
2977.267,0.5794,
2976.228,0.5714,
2975.188,0.5632,
2974.148,0.5547,
2973.109,0.5463,
2972.069,0.5383,
2971.029,0.5302,
2969.990,0.5217,
2968.950,0.5148,
2967.910,0.5138,
2966.871,0.5132,
2965.831,0.5142,
2964.792,0.5186,
2963.752,0.5366,
2962.712,0.5548,
2961.673,0.5743,
2960.633,0.5926,
2959.593,0.6061,
2958.554,0.6192,
2957.514,0.6307,
2956.474,0.6419,
2955.435,0.652,
2954.395,0.6611,
2953.355,0.6666,
2952.316,0.6719,
2951.276,0.6764,
2950.237,0.6811,
2949.197,0.6866,
2948.157,0.6913,
2947.118,0.6928,
2946.078,0.6944,
2945.038,0.6964,
2943.999,0.6974,
2942.959,0.6944,
2941.919,0.6897,
2940.880,0.6777,
2939.840,0.667,
2938.801,0.6615,
2937.761,0.6567,
2936.721,0.6552,
2935.682,0.6523,
2934.642,0.6432,
2933.602,0.6341,
2932.563,0.6246,
2931.523,0.6163,
2930.483,0.6128,
2929.444,0.6097,
2928.404,0.6082,
2927.364,0.6073,
2926.325,0.6088,
2925.285,0.6122,
2924.246,0.6237,
2923.206,0.6362,
2922.166,0.6526,
2921.127,0.6682,
2920.087,0.6797,
2919.047,0.6909,
2918.008,0.7009,
2916.968,0.7106,
2915.928,0.7191,
2914.889,0.7276,
2913.849,0.7361,
2912.810,0.7442,
2911.770,0.7502,
2910.730,0.7562,
2909.691,0.7622,
2908.651,0.7678,
2907.611,0.7718,
2906.572,0.7756,
2905.532,0.7786,
2904.492,0.7813,
2903.453,0.7828,
2902.413,0.7848,
2901.373,0.7893,
2900.334,0.7935,
2899.294,0.796,
2898.255,0.7984,
2897.215,0.8004,
2896.175,0.8023,
2895.136,0.8038,
2894.096,0.8053,
2893.056,0.8068,
2892.017,0.8083,
2890.977,0.8098,
2889.937,0.8113,
2888.898,0.8128,
2887.858,0.8142,
2886.819,0.8152,
2885.779,0.8162,
2884.739,0.8172,
2883.700,0.8181,
2882.660,0.8186,
2881.620,0.8192,
2880.581,0.8202,
2879.541,0.821,
2878.501,0.821,
2877.462,0.8211,
2876.422,0.8216,
2875.382,0.822,
2874.343,0.822,
2873.303,0.8222,
2872.264,0.8232,
2871.224,0.824,
2870.184,0.824,
2869.145,0.824,
2868.105,0.824,
2867.065,0.8241,
2866.026,0.8246,
2864.986,0.825,
2863.946,0.825,
2862.907,0.8249,
2861.867,0.8244,
2860.828,0.8236,
2859.788,0.8211,
2858.748,0.8187,
2857.709,0.8172,
2856.669,0.8156,
2855.629,0.8131,
2854.590,0.8107,
2853.550,0.8092,
2852.510,0.8077,
2851.471,0.8062,
2850.431,0.8046,
2849.391,0.8026,
2848.352,0.8008,
2847.312,0.7998,
2846.273,0.799,
2845.233,0.799,
2844.193,0.7992,
2843.154,0.8002,
2842.114,0.8013,
2841.074,0.8028,
2840.035,0.805,
2838.995,0.811,
2837.955,0.8165,
2836.916,0.8195,
2835.876,0.8228,
2834.837,0.8273,
2833.797,0.8312,
2832.757,0.8322,
2831.718,0.8333,
2830.678,0.8354,
2829.638,0.8373,
2828.599,0.8388,
2827.559,0.8404,
2826.519,0.8424,
2825.480,0.8441,
2824.440,0.8446,
2823.400,0.8453,
2822.361,0.8468,
2821.321,0.8483,
2820.282,0.8498,
2819.242,0.8512,
2818.202,0.8522,
2817.163,0.853,
2816.123,0.853,
2815.083,0.853,
2814.044,0.853,
2813.004,0.8531,
2811.964,0.8536,
2810.925,0.854,
2809.885,0.854,
2808.846,0.854,
2807.806,0.854,
2806.766,0.8539,
2805.727,0.8534,
2804.687,0.853,
2803.647,0.853,
2802.608,0.8528,
2801.568,0.8518,
2800.528,0.8507,
2799.489,0.8492,
2798.449,0.8478,
2797.409,0.8463,
2796.370,0.8445,
2795.330,0.8415,
2794.291,0.8388,
2793.251,0.8378,
2792.211,0.8364,
2791.172,0.8329,
2790.132,0.8295,
2789.092,0.8265,
2788.053,0.8238,
2787.013,0.8228,
2785.973,0.8222,
2784.934,0.8232,
2783.894,0.8241,
2782.855,0.8246,
2781.815,0.8254,
2780.775,0.8279,
2779.736,0.8305,
2778.696,0.8335,
2777.656,0.8367,
2776.617,0.8412,
2775.577,0.8456,
2774.537,0.8496,
2773.498,0.8532,
2772.458,0.8547,
2771.418,0.8562,
2770.379,0.8577,
2769.339,0.8593,
2768.300,0.8613,
2767.260,0.8632,
2766.220,0.8642,
2765.181,0.8653,
2764.141,0.8668,
2763.101,0.8682,
2762.062,0.8692,
2761.022,0.8701,
2759.982,0.8706,
2758.943,0.871,
2757.903,0.871,
2756.864,0.8712,
2755.824,0.8722,
2754.784,0.8731,
2753.745,0.8736,
2752.705,0.874,
2751.665,0.874,
2750.626,0.8741,
2749.586,0.8751,
2748.546,0.876,
2747.507,0.876,
2746.467,0.8761,
2745.427,0.8766,
2744.388,0.877,
2743.348,0.877,
2742.309,0.8772,
2741.269,0.8782,
2740.229,0.8791,
2739.190,0.8796,
2738.150,0.88,
2737.110,0.88,
2736.071,0.8802,
2735.031,0.8812,
2733.991,0.882,
2732.952,0.882,
2731.912,0.8819,
2730.873,0.8809,
2729.833,0.88,
2728.793,0.88,
2727.754,0.88,
2726.714,0.88,
2725.674,0.88,
2724.635,0.88,
2723.595,0.8799,
2722.555,0.8794,
2721.516,0.879,
2720.476,0.879,
2719.436,0.879,
2718.397,0.879,
2717.357,0.879,
2716.318,0.879,
2715.278,0.8791,
2714.238,0.8796,
2713.199,0.88,
2712.159,0.88,
2711.119,0.88,
2710.080,0.88,
2709.040,0.88,
2708.000,0.88,
2706.961,0.88,
2705.921,0.88,
2704.882,0.88,
2703.842,0.88,
2702.802,0.88,
2701.763,0.88,
2700.723,0.8799,
2699.683,0.8794,
2698.644,0.8789,
2697.604,0.8779,
2696.564,0.877,
2695.525,0.877,
2694.485,0.877,
2693.445,0.877,
2692.406,0.877,
2691.366,0.877,
2690.327,0.877,
2689.287,0.877,
2688.247,0.877,
2687.208,0.877,
2686.168,0.8771,
2685.128,0.8781,
2684.089,0.8792,
2683.049,0.8807,
2682.009,0.8821,
2680.970,0.8826,
2679.930,0.8831,
2678.891,0.8841,
2677.851,0.8851,
2676.811,0.8856,
2675.772,0.886,
2674.732,0.886,
2673.692,0.886,
2672.653,0.886,
2671.613,0.886,
2670.573,0.886,
2669.534,0.886,
2668.494,0.886,
2667.454,0.8859,
2666.415,0.8854,
2665.375,0.8849,
2664.336,0.8839,
2663.296,0.883,
2662.256,0.883,
2661.217,0.8829,
2660.177,0.8824,
2659.137,0.8818,
2658.098,0.8803,
2657.058,0.879,
2656.018,0.879,
2654.979,0.879,
2653.939,0.879,
2652.900,0.879,
2651.860,0.879,
2650.820,0.879,
2649.781,0.879,
2648.741,0.879,
2647.701,0.879,
2646.662,0.879,
2645.622,0.879,
2644.582,0.8789,
2643.543,0.8779,
2642.503,0.877,
2641.463,0.877,
2640.424,0.877,
2639.384,0.877,
2638.345,0.877,
2637.305,0.877,
2636.265,0.877,
2635.226,0.877,
2634.186,0.877,
2633.146,0.877,
2632.107,0.877,
2631.067,0.877,
2630.027,0.877,
2628.988,0.877,
2627.948,0.877,
2626.909,0.877,
2625.869,0.8771,
2624.829,0.8781,
2623.790,0.879,
2622.750,0.879,
2621.710,0.879,
2620.671,0.879,
2619.631,0.879,
2618.591,0.879,
2617.552,0.879,
2616.512,0.879,
2615.472,0.879,
2614.433,0.879,
2613.393,0.8791,
2612.354,0.8796,
2611.314,0.88,
2610.274,0.88,
2609.235,0.8801,
2608.195,0.8811,
2607.155,0.882,
2606.116,0.882,
2605.076,0.8819,
2604.036,0.8809,
2602.997,0.8799,
2601.957,0.8794,
2600.918,0.8788,
2599.878,0.8773,
2598.838,0.8758,
2597.799,0.8743,
2596.759,0.8728,
2595.719,0.8713,
2594.680,0.8697,
2593.640,0.8672,
2592.600,0.8649,
2591.561,0.8639,
2590.521,0.8628,
2589.481,0.8608,
2588.442,0.8588,
2587.402,0.8573,
2586.363,0.8558,
2585.323,0.8543,
2584.283,0.8527,
2583.244,0.8497,
2582.204,0.8467,
2581.164,0.8442,
2580.125,0.8416,
2579.085,0.8386,
2578.045,0.8358,
2577.006,0.8343,
2575.966,0.833,
2574.927,0.833,
2573.887,0.8332,
2572.847,0.8347,
2571.808,0.8367,
2570.768,0.8422,
2569.728,0.8481,
2568.689,0.8576,
2567.649,0.8664,
2566.609,0.8699,
2565.570,0.8731,
2564.530,0.8736,
2563.490,0.8742,
2562.451,0.8757,
2561.411,0.8772,
2560.372,0.8787,
2559.332,0.88,
2558.292,0.88,
2557.253,0.8801,
2556.213,0.8811,
2555.173,0.8821,
2554.134,0.8826,
2553.094,0.883,
2552.054,0.883,
2551.015,0.883,
2549.975,0.883,
2548.936,0.8831,
2547.896,0.8841,
2546.856,0.885,
2545.817,0.885,
2544.777,0.885,
2543.737,0.885,
2542.698,0.8851,
2541.658,0.8856,
2540.618,0.886,
2539.579,0.886,
2538.539,0.886,
2537.499,0.886,
2536.460,0.886,
2535.420,0.886,
2534.381,0.8859,
2533.341,0.8854,
2532.301,0.885,
2531.262,0.885,
2530.222,0.885,
2529.182,0.885,
2528.143,0.885,
2527.103,0.885,
2526.063,0.885,
2525.024,0.885,
2523.984,0.8849,
2522.945,0.8839,
2521.905,0.883,
2520.865,0.883,
2519.826,0.883,
2518.786,0.883,
2517.746,0.883,
2516.707,0.883,
2515.667,0.883,
2514.627,0.883,
2513.588,0.883,
2512.548,0.883,
2511.508,0.8829,
2510.469,0.8824,
2509.429,0.882,
2508.390,0.882,
2507.350,0.8819,
2506.310,0.8809,
2505.271,0.88,
2504.231,0.88,
2503.191,0.8799,
2502.152,0.8795,
2501.112,0.879,
2500.072,0.879,
2499.033,0.8789,
2497.993,0.8779,
2496.954,0.877,
2495.914,0.877,
2494.874,0.877,
2493.835,0.877,
2492.795,0.8771,
2491.755,0.8781,
2490.716,0.879,
2489.676,0.879,
2488.636,0.879,
2487.597,0.879,
2486.557,0.879,
2485.517,0.879,
2484.478,0.8791,
2483.438,0.8795,
2482.399,0.88,
2481.359,0.88,
2480.319,0.8801,
2479.280,0.8811,
2478.240,0.882,
2477.200,0.882,
2476.161,0.882,
2475.121,0.882,
2474.081,0.882,
2473.042,0.882,
2472.002,0.882,
2470.963,0.882,
2469.923,0.882,
2468.883,0.882,
2467.844,0.882,
2466.804,0.882,
2465.764,0.882,
2464.725,0.882,
2463.685,0.882,
2462.645,0.882,
2461.606,0.8819,
2460.566,0.8809,
2459.526,0.88,
2458.487,0.8795,
2457.447,0.8789,
2456.408,0.8774,
2455.368,0.8759,
2454.328,0.8749,
2453.289,0.8737,
2452.249,0.8707,
2451.209,0.8677,
2450.170,0.8647,
2449.130,0.8618,
2448.090,0.8593,
2447.051,0.857,
2446.011,0.8565,
2444.972,0.8559,
2443.932,0.8549,
2442.892,0.854,
2441.853,0.854,
2440.813,0.854,
2439.773,0.8535,
2438.734,0.853,
2437.694,0.853,
2436.654,0.853,
2435.615,0.853,
2434.575,0.8531,
2433.535,0.8536,
2432.496,0.8543,
2431.456,0.8567,
2430.417,0.8593,
2429.377,0.8623,
2428.337,0.8651,
2427.298,0.8666,
2426.258,0.8681,
2425.218,0.8696,
2424.179,0.8711,
2423.139,0.8726,
2422.099,0.874,
2421.060,0.874,
2420.020,0.8741,
2418.981,0.8756,
2417.941,0.877,
2416.901,0.877,
2415.862,0.8771,
2414.822,0.8781,
2413.782,0.879,
2412.743,0.879,
2411.703,0.879,
2410.663,0.8795,
2409.624,0.8801,
2408.584,0.8811,
2407.544,0.882,
2406.505,0.8825,
2405.465,0.883,
2404.426,0.883,
2403.386,0.8831,
2402.346,0.8841,
2401.307,0.885,
2400.267,0.885,
2399.227,0.885,
2398.188,0.8855,
2397.148,0.886,
2396.108,0.886,
2395.069,0.886,
2394.029,0.886,
2392.990,0.886,
2391.950,0.886,
2390.910,0.886,
2389.871,0.886,
2388.831,0.886,
2387.791,0.886,
2386.752,0.886,
2385.712,0.8855,
2384.672,0.885,
2383.633,0.885,
2382.593,0.885,
2381.553,0.885,
2380.514,0.8849,
2379.474,0.8839,
2378.435,0.883,
2377.395,0.883,
2376.355,0.8829,
2375.316,0.8809,
2374.276,0.8789,
2373.236,0.8779,
2372.197,0.877,
2371.157,0.8765,
2370.117,0.8759,
2369.078,0.8749,
2368.038,0.874,
2366.999,0.8735,
2365.959,0.8729,
2364.919,0.8719,
2363.880,0.8708,
2362.840,0.8683,
2361.800,0.866,
2360.761,0.8655,
2359.721,0.865,
2358.681,0.865,
2357.642,0.865,
2356.602,0.865,
2355.562,0.865,
2354.523,0.865,
2353.483,0.865,
2352.444,0.865,
2351.404,0.865,
2350.364,0.865,
2349.325,0.865,
2348.285,0.865,
2347.245,0.865,
2346.206,0.865,
2345.166,0.865,
2344.126,0.865,
2343.087,0.8649,
2342.047,0.8639,
2341.008,0.863,
2339.968,0.863,
2338.928,0.863,
2337.889,0.863,
2336.849,0.863,
2335.809,0.863,
2334.770,0.863,
2333.730,0.863,
2332.690,0.8631,
2331.651,0.8641,
2330.611,0.865,
2329.571,0.865,
2328.532,0.865,
2327.492,0.865,
2326.453,0.8649,
2325.413,0.8639,
2324.373,0.863,
2323.334,0.863,
2322.294,0.8631,
2321.254,0.8641,
2320.215,0.8651,
2319.175,0.8666,
2318.135,0.868,
2317.096,0.868,
2316.056,0.8681,
2315.017,0.8691,
2313.977,0.8701,
2312.937,0.8716,
2311.898,0.8731,
2310.858,0.8746,
2309.818,0.8761,
2308.779,0.8776,
2307.739,0.879,
2306.699,0.8795,
2305.660,0.88,
2304.620,0.88,
2303.580,0.8801,
2302.541,0.8811,
2301.501,0.882,
2300.462,0.882,
2299.422,0.882,
2298.382,0.8825,
2297.343,0.883,
2296.303,0.883,
2295.263,0.883,
2294.224,0.883,
2293.184,0.883,
2292.144,0.8825,
2291.105,0.882,
2290.065,0.882,
2289.026,0.8819,
2287.986,0.8804,
2286.946,0.8789,
2285.907,0.8779,
2284.867,0.8769,
2283.827,0.8754,
2282.788,0.8737,
2281.748,0.8697,
2280.708,0.8659,
2279.669,0.8644,
2278.629,0.8629,
2277.589,0.8614,
2276.550,0.8599,
2275.510,0.8584,
2274.471,0.857,
2273.431,0.857,
2272.391,0.857,
2271.352,0.8565,
2270.312,0.8559,
2269.272,0.8544,
2268.233,0.8529,
2267.193,0.8519,
2266.153,0.851,
2265.114,0.851,
2264.074,0.851,
2263.035,0.8505,
2261.995,0.8499,
2260.955,0.8489,
2259.916,0.848,
2258.876,0.848,
2257.836,0.848,
2256.797,0.848,
2255.757,0.848,
2254.717,0.848,
2253.678,0.8481,
2252.638,0.849,
2251.598,0.85,
2250.559,0.85,
2249.519,0.8501,
2248.480,0.8516,
2247.440,0.8533,
2246.400,0.8578,
2245.361,0.8621,
2244.321,0.8641,
2243.281,0.8661,
2242.242,0.8671,
2241.202,0.8681,
2240.162,0.8691,
2239.123,0.87,
2238.083,0.87,
2237.043,0.87,
2236.004,0.8705,
2234.964,0.871,
2233.925,0.871,
2232.885,0.871,
2231.845,0.871,
2230.806,0.871,
2229.766,0.8705,
2228.726,0.87,
2227.687,0.87,
2226.647,0.8699,
2225.607,0.8689,
2224.568,0.8679,
2223.528,0.8669,
2222.489,0.8661,
2221.449,0.8671,
2220.409,0.8681,
2219.370,0.8696,
2218.330,0.8711,
2217.290,0.8726,
2216.251,0.8741,
2215.211,0.8756,
2214.171,0.877,
2213.132,0.878,
2212.092,0.879,
2211.052,0.879,
2210.013,0.879,
2208.973,0.878,
2207.934,0.877,
2206.894,0.877,
2205.854,0.877,
2204.815,0.877,
2203.775,0.877,
2202.735,0.877,
2201.696,0.877,
2200.656,0.877,
2199.616,0.877,
2198.577,0.877,
2197.537,0.877,
2196.498,0.8765,
2195.458,0.876,
2194.418,0.876,
2193.379,0.876,
2192.339,0.876,
2191.299,0.876,
2190.260,0.876,
2189.220,0.876,
2188.180,0.876,
2187.141,0.876,
2186.101,0.876,
2185.061,0.876,
2184.022,0.876,
2182.982,0.876,
2181.943,0.876,
2180.903,0.876,
2179.863,0.876,
2178.824,0.876,
2177.784,0.876,
2176.744,0.876,
2175.705,0.875,
2174.665,0.8739,
2173.625,0.8719,
2172.586,0.8699,
2171.546,0.8674,
2170.507,0.8649,
2169.467,0.8609,
2168.427,0.857,
2167.388,0.8555,
2166.348,0.854,
2165.308,0.854,
2164.269,0.854,
2163.229,0.8535,
2162.189,0.8529,
2161.150,0.8499,
2160.110,0.8469,
2159.070,0.8454,
2158.031,0.8438,
2156.991,0.8388,
2155.952,0.8339,
2154.912,0.8319,
2153.872,0.8299,
2152.833,0.8259,
2151.793,0.822,
2150.753,0.8205,
2149.714,0.8189,
2148.674,0.8159,
2147.634,0.813,
2146.595,0.8115,
2145.555,0.81,
2144.516,0.81,
2143.476,0.81,
2142.436,0.809,
2141.397,0.808,
2140.357,0.809,
2139.317,0.8102,
2138.278,0.8162,
2137.238,0.8221,
2136.198,0.8246,
2135.159,0.8271,
2134.119,0.8301,
2133.079,0.833,
2132.040,0.8345,
2131.000,0.836,
2129.961,0.836,
2128.921,0.836,
2127.881,0.8365,
2126.842,0.837,
2125.802,0.837,
2124.762,0.837,
2123.723,0.837,
2122.683,0.837,
2121.643,0.838,
2120.604,0.839,
2119.564,0.839,
2118.525,0.839,
2117.485,0.839,
2116.445,0.839,
2115.406,0.8395,
2114.366,0.84,
2113.326,0.841,
2112.287,0.842,
2111.247,0.8435,
2110.207,0.845,
2109.168,0.8465,
2108.128,0.8481,
2107.088,0.8505,
2106.049,0.853,
2105.009,0.8545,
2103.970,0.856,
2102.930,0.8591,
2101.890,0.8621,
2100.851,0.8635,
2099.811,0.865,
2098.771,0.8655,
2097.732,0.866,
2096.692,0.867,
2095.652,0.868,
2094.613,0.8695,
2093.573,0.871,
2092.534,0.8725,
2091.494,0.874,
2090.454,0.875,
2089.415,0.876,
2088.375,0.8765,
2087.335,0.877,
2086.296,0.877,
2085.256,0.877,
2084.216,0.877,
2083.177,0.877,
2082.137,0.877,
2081.097,0.877,
2080.058,0.8785,
2079.018,0.88,
2077.979,0.88,
2076.939,0.88,
2075.899,0.88,
2074.860,0.88,
2073.820,0.88,
2072.780,0.88,
2071.741,0.88,
2070.701,0.88,
2069.661,0.881,
2068.622,0.882,
2067.582,0.882,
2066.543,0.882,
2065.503,0.8825,
2064.463,0.883,
2063.424,0.883,
2062.384,0.883,
2061.344,0.883,
2060.305,0.883,
2059.265,0.883,
2058.225,0.883,
2057.186,0.883,
2056.146,0.883,
2055.106,0.883,
2054.067,0.883,
2053.027,0.883,
2051.988,0.883,
2050.948,0.884,
2049.908,0.885,
2048.869,0.885,
2047.829,0.885,
2046.789,0.885,
2045.750,0.885,
2044.710,0.885,
2043.670,0.885,
2042.631,0.885,
2041.591,0.885,
2040.552,0.885,
2039.512,0.885,
2038.472,0.885,
2037.433,0.885,
2036.393,0.8855,
2035.353,0.886,
2034.314,0.886,
2033.274,0.886,
2032.234,0.886,
2031.195,0.886,
2030.155,0.886,
2029.115,0.886,
2028.076,0.886,
2027.036,0.886,
2025.997,0.8855,
2024.957,0.885,
2023.917,0.885,
2022.878,0.885,
2021.838,0.884,
2020.798,0.883,
2019.759,0.8825,
2018.719,0.882,
2017.679,0.881,
2016.640,0.88,
2015.600,0.8795,
2014.561,0.879,
2013.521,0.8765,
2012.481,0.874,
2011.442,0.8735,
2010.402,0.873,
2009.362,0.8695,
2008.323,0.866,
2007.283,0.8655,
2006.243,0.865,
2005.204,0.864,
2004.164,0.863,
2003.124,0.863,
2002.085,0.863,
2001.045,0.863,
2000.006,0.863,
1998.966,0.863,
1997.926,0.862,
1996.887,0.86,
1995.847,0.86,
1994.807,0.859,
1993.768,0.859,
1992.728,0.859,
1991.688,0.859,
1990.649,0.859,
1989.609,0.859,
1988.570,0.859,
1987.530,0.859,
1986.490,0.86,
1985.451,0.862,
1984.411,0.863,
1983.371,0.865,
1982.332,0.868,
1981.292,0.871,
1980.252,0.874,
1979.213,0.876,
1978.173,0.877,
1977.133,0.879,
1976.094,0.879,
1975.054,0.879,
1974.015,0.879,
1972.975,0.879,
1971.935,0.879,
1970.896,0.879,
1969.856,0.879,
1968.816,0.879,
1967.777,0.879,
1966.737,0.879,
1965.697,0.88,
1964.658,0.882,
1963.618,0.882,
1962.579,0.882,
1961.539,0.882,
1960.499,0.882,
1959.460,0.88,
1958.420,0.88,
1957.380,0.879,
1956.341,0.879,
1955.301,0.877,
1954.261,0.876,
1953.222,0.876,
1952.182,0.874,
1951.142,0.873,
1950.103,0.873,
1949.063,0.871,
1948.024,0.87,
1946.984,0.87,
1945.944,0.868,
1944.905,0.866,
1943.865,0.865,
1942.825,0.865,
1941.786,0.865,
1940.746,0.865,
1939.706,0.865,
1938.667,0.865,
1937.627,0.865,
1936.588,0.865,
1935.548,0.865,
1934.508,0.865,
1933.469,0.865,
1932.429,0.865,
1931.389,0.865,
1930.350,0.865,
1929.310,0.865,
1928.270,0.865,
1927.231,0.865,
1926.191,0.865,
1925.151,0.865,
1924.112,0.865,
1923.072,0.865,
1922.033,0.865,
1920.993,0.865,
1919.953,0.865,
1918.914,0.865,
1917.874,0.863,
1916.834,0.862,
1915.795,0.862,
1914.755,0.862,
1913.715,0.86,
1912.676,0.86,
1911.636,0.86,
1910.597,0.86,
1909.557,0.862,
1908.517,0.862,
1907.478,0.863,
1906.438,0.863,
1905.398,0.863,
1904.359,0.863,
1903.319,0.863,
1902.279,0.863,
1901.240,0.863,
1900.200,0.862,
1899.160,0.862,
1898.121,0.862,
1897.081,0.859,
1896.042,0.857,
1895.002,0.856,
1893.962,0.854,
1892.923,0.854,
1891.883,0.854,
1890.843,0.853,
1889.804,0.853,
1888.764,0.853,
1887.724,0.851,
1886.685,0.851,
1885.645,0.85,
1884.606,0.85,
1883.566,0.85,
1882.526,0.85,
1881.487,0.851,
1880.447,0.851,
1879.407,0.853,
1878.368,0.853,
1877.328,0.854,
1876.288,0.856,
1875.249,0.857,
1874.209,0.857,
1873.169,0.859,
1872.130,0.859,
1871.090,0.859,
1870.051,0.859,
1869.011,0.859,
1867.971,0.857,
1866.932,0.857,
1865.892,0.856,
1864.852,0.854,
1863.813,0.851,
1862.773,0.85,
1861.733,0.844,
1860.694,0.84,
1859.654,0.84,
1858.615,0.839,
1857.575,0.837,
1856.535,0.836,
1855.496,0.834,
1854.456,0.833,
1853.416,0.831,
1852.377,0.831,
1851.337,0.83,
1850.297,0.828,
1849.258,0.824,
1848.218,0.822,
1847.178,0.821,
1846.139,0.819,
1845.099,0.818,
1844.060,0.818,
1843.020,0.818,
1841.980,0.814,
1840.941,0.811,
1839.901,0.81,
1838.861,0.808,
1837.822,0.808,
1836.782,0.807,
1835.742,0.807,
1834.703,0.802,
1833.663,0.799,
1832.624,0.799,
1831.584,0.796,
1830.544,0.795,
1829.505,0.792,
1828.465,0.788,
1827.425,0.785,
1826.386,0.784,
1825.346,0.778,
1824.306,0.776,
1823.267,0.775,
1822.227,0.772,
1821.187,0.764,
1820.148,0.762,
1819.108,0.755,
1818.069,0.752,
1817.029,0.746,
1815.989,0.743,
1814.950,0.741,
1813.910,0.733,
1812.870,0.73,
1811.831,0.724,
1810.791,0.717,
1809.751,0.707,
1808.712,0.701,
1807.672,0.698,
1806.633,0.689,
1805.593,0.685,
1804.553,0.678,
1803.514,0.672,
1802.474,0.665,
1801.434,0.655,
1800.395,0.648,
1799.355,0.639,
1798.315,0.633,
1797.276,0.626,
1796.236,0.62,
1795.196,0.613,
1794.157,0.608,
1793.117,0.603,
1792.078,0.599,
1791.038,0.591,
1789.998,0.588,
1788.959,0.585,
1787.919,0.582,
1786.879,0.579,
1785.840,0.576,
1784.800,0.573,
1783.760,0.571,
1782.721,0.57,
1781.681,0.567,
1780.642,0.564,
1779.602,0.561,
1778.562,0.555,
1777.523,0.553,
1776.483,0.55,
1775.443,0.542,
1774.404,0.533,
1773.364,0.529,
1772.324,0.519,
1771.285,0.507,
1770.245,0.5,
1769.205,0.47,
1768.166,0.461,
1767.126,0.444,
1766.087,0.434,
1765.047,0.4121,
1764.007,0.3911,
1762.968,0.3741,
1761.928,0.342,
1760.888,0.321,
1759.849,0.281,
1758.809,0.258,
1757.769,0.227,
1756.730,0.203,
1755.690,0.18,
1754.651,0.1591,
1753.611,0.1371,
1752.571,0.1231,
1751.532,0.103,
1750.492,0.102,
1749.452,0.103,
1748.413,0.107,
1747.373,0.113,
1746.333,0.116,
1745.294,0.125,
1744.254,0.126,
1743.214,0.129,
1742.175,0.129,
1741.135,0.123,
1740.096,0.105,
1739.056,0.096,
1738.016,0.085,
1736.977,0.074,
1735.937,0.062,
1734.897,0.051,
1733.858,0.039,
1732.818,0.032,
1731.778,0.021,
1730.739,0.012,
1729.699,0.007,
1728.660,0.006,
1727.620,0.004,
1726.580,0.004,
1725.541,0.004,
1724.501,0.003,
1723.461,0.003,
1722.422,0.003,
1721.382,0.003,
1720.342,0.003,
1719.303,0.003,
1718.263,0.001,
1717.223,0.001,
1716.184,0.001,
1715.144,0.001,
1714.105,0.001,
1713.065,0.001,
1712.025,0.003,
1710.986,0.004,
1709.946,0.01,
1708.906,0.019,
1707.867,0.038,
1706.827,0.062,
1705.787,0.093,
1704.748,0.114,
1703.708,0.126,
1702.669,0.1769,
1701.629,0.2179,
1700.589,0.2588,
1699.550,0.29,
1698.510,0.325,
1697.470,0.35,
1696.431,0.376,
1695.391,0.392,
1694.351,0.406,
1693.312,0.417,
1692.272,0.429,
1691.232,0.4439,
1690.193,0.4549,
1689.153,0.461,
1688.114,0.466,
1687.074,0.472,
1686.034,0.475,
1684.995,0.478,
1683.955,0.478,
1682.915,0.477,
1681.876,0.475,
1680.836,0.477,
1679.796,0.4949,
1678.757,0.504,
1677.717,0.513,
1676.678,0.532,
1675.638,0.553,
1674.598,0.582,
1673.559,0.602,
1672.519,0.613,
1671.479,0.629,
1670.440,0.6479,
1669.400,0.6619,
1668.360,0.666,
1667.321,0.675,
1666.281,0.685,
1665.241,0.689,
1664.202,0.697,
1663.162,0.701,
1662.123,0.707,
1661.083,0.712,
1660.043,0.718,
1659.004,0.721,
1657.964,0.723,
1656.924,0.724,
1655.885,0.729,
1654.845,0.732,
1653.805,0.74,
1652.766,0.741,
1651.726,0.744,
1650.687,0.747,
1649.647,0.75,
1648.607,0.753,
1647.568,0.755,
1646.528,0.758,
1645.488,0.762,
1644.449,0.762,
1643.409,0.766,
1642.369,0.767,
1641.330,0.77,
1640.290,0.772,
1639.250,0.773,
1638.211,0.775,
1637.171,0.775,
1636.132,0.776,
1635.092,0.778,
1634.052,0.778,
1633.013,0.781,
1631.973,0.781,
1630.933,0.782,
1629.894,0.784,
1628.854,0.784,
1627.814,0.784,
1626.775,0.784,
1625.735,0.782,
1624.696,0.782,
1623.656,0.782,
1622.616,0.781,
1621.577,0.781,
1620.537,0.781,
1619.497,0.781,
1618.458,0.781,
1617.418,0.781,
1616.378,0.781,
1615.339,0.781,
1614.299,0.782,
1613.259,0.782,
1612.220,0.782,
1611.180,0.782,
1610.141,0.782,
1609.101,0.784,
1608.061,0.784,
1607.022,0.785,
1605.982,0.785,
1604.942,0.785,
1603.903,0.785,
1602.863,0.784,
1601.823,0.782,
1600.784,0.781,
1599.744,0.779,
1598.705,0.778,
1597.665,0.776,
1596.625,0.773,
1595.586,0.773,
1594.546,0.77,
1593.506,0.769,
1592.467,0.767,
1591.427,0.766,
1590.387,0.764,
1589.348,0.762,
1588.308,0.762,
1587.268,0.761,
1586.229,0.758,
1585.189,0.755,
1584.150,0.752,
1583.110,0.75,
1582.070,0.747,
1581.031,0.743,
1579.991,0.741,
1578.951,0.74,
1577.912,0.738,
1576.872,0.737,
1575.832,0.737,
1574.793,0.735,
1573.753,0.735,
1572.714,0.735,
1571.674,0.735,
1570.634,0.735,
1569.595,0.735,
1568.555,0.735,
1567.515,0.735,
1566.476,0.735,
1565.436,0.735,
1564.396,0.735,
1563.357,0.737,
1562.317,0.738,
1561.277,0.74,
1560.238,0.741,
1559.198,0.746,
1558.159,0.75,
1557.119,0.753,
1556.079,0.756,
1555.040,0.759,
1554.000,0.761,
1552.960,0.762,
1551.921,0.764,
1550.881,0.764,
1549.841,0.764,
1548.802,0.764,
1547.762,0.764,
1546.723,0.764,
1545.683,0.764,
1544.643,0.762,
1543.604,0.761,
1542.564,0.758,
1541.524,0.756,
1540.485,0.752,
1539.445,0.744,
1538.405,0.743,
1537.366,0.74,
1536.326,0.735,
1535.286,0.732,
1534.247,0.73,
1533.207,0.729,
1532.168,0.727,
1531.128,0.726,
1530.088,0.724,
1529.049,0.724,
1528.009,0.723,
1526.969,0.723,
1525.930,0.721,
1524.890,0.721,
1523.850,0.721,
1522.811,0.72,
1521.771,0.72,
1520.732,0.718,
1519.692,0.718,
1518.652,0.717,
1517.613,0.712,
1516.573,0.711,
1515.533,0.709,
1514.494,0.707,
1513.454,0.707,
1512.414,0.704,
1511.375,0.703,
1510.335,0.701,
1509.295,0.7,
1508.256,0.697,
1507.216,0.695,
1506.177,0.692,
1505.137,0.691,
1504.097,0.689,
1503.058,0.689,
1502.018,0.686,
1500.978,0.683,
1499.939,0.68,
1498.899,0.677,
1497.859,0.674,
1496.820,0.671,
1495.780,0.666,
1494.741,0.666,
1493.701,0.663,
1492.661,0.662,
1491.622,0.655,
1490.582,0.651,
1489.542,0.643,
1488.503,0.64,
1487.463,0.634,
1486.423,0.629,
1485.384,0.625,
1484.344,0.62,
1483.304,0.616,
1482.265,0.611,
1481.225,0.607,
1480.186,0.602,
1479.146,0.597,
1478.106,0.593,
1477.067,0.588,
1476.027,0.585,
1474.987,0.581,
1473.948,0.576,
1472.908,0.568,
1471.868,0.561,
1470.829,0.553,
1469.789,0.547,
1468.750,0.538,
1467.710,0.529,
1466.670,0.519,
1465.631,0.507,
1464.591,0.478,
1463.551,0.466,
1462.512,0.458,
1461.472,0.443,
1460.432,0.428,
1459.393,0.415,
1458.353,0.402,
1457.313,0.388,
1456.274,0.371,
1455.234,0.357,
1454.195,0.345,
1453.155,0.333,
1452.115,0.318,
1451.076,0.3011,
1450.036,0.285,
1448.996,0.269,
1447.957,0.252,
1446.917,0.238,
1445.877,0.224,
1444.838,0.214,
1443.798,0.197,
1442.759,0.191,
1441.719,0.178,
1440.679,0.174,
1439.640,0.166,
1438.600,0.163,
1437.560,0.163,
1436.521,0.162,
1435.481,0.16,
1434.441,0.16,
1433.402,0.162,
1432.362,0.171,
1431.322,0.175,
1430.283,0.183,
1429.243,0.185,
1428.204,0.185,
1427.164,0.181,
1426.124,0.18,
1425.085,0.174,
1424.045,0.165,
1423.005,0.162,
1421.966,0.159,
1420.926,0.154,
1419.886,0.152,
1418.847,0.154,
1417.807,0.159,
1416.768,0.169,
1415.728,0.183,
1414.688,0.201,
1413.649,0.215,
1412.609,0.226,
1411.569,0.247,
1410.530,0.264,
1409.490,0.2819,
1408.450,0.296,
1407.411,0.313,
1406.371,0.325,
1405.331,0.337,
1404.292,0.345,
1403.252,0.353,
1402.213,0.357,
1401.173,0.368,
1400.133,0.376,
1399.094,0.379,
1398.054,0.382,
1397.014,0.385,
1395.975,0.385,
1394.935,0.385,
1393.895,0.382,
1392.856,0.379,
1391.816,0.374,
1390.777,0.363,
1389.737,0.348,
1388.697,0.34,
1387.658,0.331,
1386.618,0.319,
1385.578,0.307,
1384.539,0.29,
1383.499,0.273,
1382.459,0.255,
1381.420,0.232,
1380.380,0.214,
1379.340,0.1891,
1378.301,0.1651,
1377.261,0.1399,
1376.222,0.117,
1375.182,0.096,
1374.142,0.076,
1373.103,0.058,
1372.063,0.042,
1371.023,0.029,
1369.984,0.018,
1368.944,0.009,
1367.904,0.007,
1366.865,0.006,
1365.825,0.004,
1364.786,0.004,
1363.746,0.003,
1362.706,0.003,
1361.667,0.001,
1360.627,0.001,
1359.587,0.001,
1358.548,0.003,
1357.508,0.004,
1356.468,0.007,
1355.429,0.015,
1354.389,0.029,
1353.349,0.042,
1352.310,0.053,
1351.270,0.093,
1350.231,0.129,
1349.191,0.168,
1348.151,0.2089,
1347.112,0.2369,
1346.072,0.2721,
1345.032,0.3011,
1343.993,0.336,
1342.953,0.36,
1341.913,0.386,
1340.874,0.414,
1339.834,0.443,
1338.795,0.455,
1337.755,0.4779,
1336.715,0.493,
1335.676,0.503,
1334.636,0.51,
1333.596,0.527,
1332.557,0.541,
1331.517,0.553,
1330.477,0.568,
1329.438,0.574,
1328.398,0.577,
1327.358,0.584,
1326.319,0.591,
1325.279,0.6051,
1324.240,0.625,
1323.200,0.639,
1322.160,0.649,
1321.121,0.663,
1320.081,0.672,
1319.041,0.683,
1318.002,0.691,
1316.962,0.7,
1315.922,0.711,
1314.883,0.72,
1313.843,0.727,
1312.804,0.738,
1311.764,0.744,
1310.724,0.755,
1309.685,0.762,
1308.645,0.77,
1307.605,0.776,
1306.566,0.782,
1305.526,0.788,
1304.486,0.795,
1303.447,0.801,
1302.407,0.807,
1301.367,0.808,
1300.328,0.818,
1299.288,0.824,
1298.249,0.827,
1297.209,0.828,
1296.169,0.83,
1295.130,0.831,
1294.090,0.834,
1293.050,0.839,
1292.011,0.84,
1290.971,0.844,
1289.931,0.848,
1288.892,0.851,
1287.852,0.851,
1286.813,0.853,
1285.773,0.856,
1284.733,0.857,
1283.694,0.859,
1282.654,0.862,
1281.614,0.862,
1280.575,0.863,
1279.535,0.863,
1278.495,0.865,
1277.456,0.865,
1276.416,0.865,
1275.376,0.865,
1274.337,0.863,
1273.297,0.862,
1272.258,0.86,
1271.218,0.859,
1270.178,0.856,
1269.139,0.853,
1268.099,0.847,
1267.059,0.844,
1266.020,0.84,
1264.980,0.84,
1263.940,0.837,
1262.901,0.834,
1261.861,0.833,
1260.822,0.83,
1259.782,0.822,
1258.742,0.819,
1257.703,0.814,
1256.663,0.81,
1255.623,0.807,
1254.584,0.799,
1253.544,0.792,
1252.504,0.787,
1251.465,0.776,
1250.425,0.766,
1249.385,0.755,
1248.346,0.744,
1247.306,0.733,
1246.267,0.723,
1245.227,0.707,
1244.187,0.695,
1243.148,0.6721,
1242.108,0.6619,
1241.068,0.6369,
1240.029,0.6139,
1238.989,0.584,
1237.949,0.561,
1236.910,0.532,
1235.870,0.5,
1234.831,0.4171,
1233.791,0.3771,
1232.751,0.3371,
1231.712,0.2639,
1230.672,0.2169,
1229.632,0.1649,
1228.593,0.114,
1227.553,0.073,
1226.513,0.044,
1225.474,0.015,
1224.434,0.004,
1223.394,0.003,
1222.355,0.003,
1221.315,0.001,
1220.276,0.001,
1219.236,0.001,
1218.196,0.001,
1217.157,0.001,
1216.117,0.001,
1215.077,0.003,
1214.038,0.024,
1212.998,0.05,
1211.958,0.0759,
1210.919,0.1253,
1209.879,0.2121,
1208.840,0.2501,
1207.800,0.307,
1206.760,0.353,
1205.721,0.397,
1204.681,0.437,
1203.641,0.463,
1202.602,0.4959,
1201.562,0.5149,
1200.522,0.5331,
1199.483,0.5621,
1198.443,0.581,
1197.403,0.594,
1196.364,0.6,
1195.324,0.608,
1194.285,0.62,
1193.245,0.634,
1192.205,0.646,
1191.166,0.6739,
1190.126,0.6941,
1189.086,0.717,
1188.047,0.733,
1187.007,0.752,
1185.967,0.77,
1184.928,0.781,
1183.888,0.796,
1182.849,0.807,
1181.809,0.811,
1180.769,0.822,
1179.730,0.833,
1178.690,0.84,
1177.650,0.845,
1176.611,0.853,
1175.571,0.857,
1174.531,0.863,
1173.492,0.868,
1172.452,0.873,
1171.412,0.876,
1170.373,0.883,
1169.333,0.886,
1168.294,0.888,
1167.254,0.889,
1166.214,0.896,
1165.175,0.899,
1164.135,0.902,
1163.095,0.905,
1162.056,0.906,
1161.016,0.909,
1159.976,0.912,
1158.937,0.917,
1157.897,0.918,
1156.858,0.918,
1155.818,0.92,
1154.778,0.922,
1153.739,0.923,
1152.699,0.923,
1151.659,0.926,
1150.620,0.929,
1149.580,0.931,
1148.540,0.932,
1147.501,0.932,
1146.461,0.934,
1145.421,0.934,
1144.382,0.934,
1143.342,0.934,
1142.303,0.932,
1141.263,0.932,
1140.223,0.932,
1139.184,0.934,
1138.144,0.934,
1137.104,0.935,
1136.065,0.937,
1135.025,0.937,
1133.985,0.937,
1132.946,0.937,
1131.906,0.937,
1130.867,0.935,
1129.827,0.934,
1128.787,0.932,
1127.748,0.931,
1126.708,0.929,
1125.668,0.926,
1124.629,0.922,
1123.589,0.917,
1122.549,0.912,
1121.510,0.911,
1120.470,0.908,
1119.430,0.903,
1118.391,0.9,
1117.351,0.897,
1116.312,0.896,
1115.272,0.889,
1114.232,0.886,
1113.193,0.882,
1112.153,0.877,
1111.113,0.87,
1110.074,0.862,
1109.034,0.853,
1107.994,0.845,
1106.955,0.836,
1105.915,0.825,
1104.876,0.81,
1103.836,0.795,
1102.796,0.792,
1101.757,0.784,
1100.717,0.752,
1099.677,0.715,
1098.638,0.683,
1097.598,0.6491,
1096.558,0.6169,
1095.519,0.5839,
1094.479,0.5449,
1093.439,0.5089,
1092.400,0.44,
1091.360,0.432,
1090.321,0.432,
1089.281,0.449,
1088.241,0.4899,
1087.202,0.5319,
1086.162,0.5732,
1085.122,0.6331,
1084.083,0.6751,
1083.043,0.7171,
1082.003,0.747,
1080.964,0.769,
1079.924,0.801,
1078.885,0.822,
1077.845,0.839,
1076.805,0.853,
1075.766,0.863,
1074.726,0.874,
1073.686,0.886,
1072.647,0.892,
1071.607,0.9,
1070.567,0.906,
1069.528,0.911,
1068.488,0.915,
1067.448,0.918,
1066.409,0.92,
1065.369,0.923,
1064.330,0.925,
1063.290,0.928,
1062.250,0.929,
1061.211,0.931,
1060.171,0.932,
1059.131,0.935,
1058.092,0.941,
1057.052,0.943,
1056.012,0.944,
1054.973,0.948,
1053.933,0.949,
1052.894,0.952,
1051.854,0.955,
1050.814,0.958,
1049.775,0.963,
1048.735,0.964,
1047.695,0.966,
1046.656,0.967,
1045.616,0.969,
1044.576,0.97,
1043.537,0.972,
1042.497,0.974,
1041.457,0.975,
1040.418,0.977,
1039.378,0.977,
1038.339,0.978,
1037.299,0.98,
1036.259,0.981,
1035.220,0.983,
1034.180,0.984,
1033.140,0.986,
1032.101,0.986,
1031.061,0.987,
1030.021,0.987,
1028.982,0.989,
1027.942,0.989,
1026.902,0.99,
1025.863,0.992,
1024.823,0.992,
1023.784,0.992,
1022.744,0.993,
1021.704,0.993,
1020.665,0.993,
1019.625,0.993,
1018.585,0.993,
1017.546,0.995,
1016.506,0.995,
1015.466,0.996,
1014.427,0.996,
1013.387,0.996,
1012.348,0.998,
1011.308,0.998,
1010.268,0.998,
1009.229,0.998,
1008.189,0.998,
1007.149,0.998,
1006.110,0.998,
1005.070,0.998,
1004.030,0.998,
1002.991,0.998,
1001.951,0.996,
1000.911,0.996,
999.872,0.995,
998.832,0.992,
997.793,0.99,
996.753,0.987,
995.713,0.986,
994.674,0.986,
993.634,0.983,
992.594,0.98,
991.555,0.978,
990.515,0.978,
989.475,0.977,
988.436,0.977,
987.396,0.977,
986.357,0.977,
985.317,0.977,
984.277,0.975,
983.238,0.974,
982.198,0.974,
981.158,0.972,
980.119,0.969,
979.079,0.967,
978.039,0.966,
977.000,0.964,
975.960,0.964,
974.920,0.964,
973.881,0.964,
972.841,0.966,
971.802,0.966,
970.762,0.967,
969.722,0.969,
968.683,0.97,
967.643,0.97,
966.603,0.972,
965.564,0.975,
964.524,0.977,
963.484,0.98,
962.445,0.983,
961.405,0.984,
960.366,0.986,
959.326,0.987,
958.286,0.987,
957.247,0.986,
956.207,0.986,
955.167,0.984,
954.128,0.981,
953.088,0.98,
952.048,0.978,
951.009,0.977,
949.969,0.969,
948.929,0.963,
947.890,0.961,
946.850,0.96,
945.811,0.958,
944.771,0.957,
943.731,0.955,
942.692,0.954,
941.652,0.951,
940.612,0.948,
939.573,0.948,
938.533,0.946,
937.493,0.944,
936.454,0.943,
935.414,0.941,
934.375,0.937,
933.335,0.934,
932.295,0.931,
931.256,0.929,
930.216,0.923,
929.176,0.92,
928.137,0.912,
927.097,0.911,
926.057,0.906,
925.018,0.9,
923.978,0.896,
922.938,0.888,
921.899,0.885,
920.859,0.877,
919.820,0.871,
918.780,0.863,
917.740,0.857,
916.701,0.851,
915.661,0.844,
914.621,0.834,
913.582,0.827,
912.542,0.818,
911.502,0.807,
910.463,0.796,
909.423,0.7849,
908.384,0.767,
907.344,0.761,
906.304,0.753,
905.265,0.743,
904.225,0.732,
903.185,0.721,
902.146,0.714,
901.106,0.706,
900.066,0.703,
899.027,0.703,
897.987,0.706,
896.947,0.7171,
895.908,0.7381,
894.868,0.756,
893.829,0.775,
892.789,0.79,
891.749,0.805,
890.710,0.819,
889.670,0.837,
888.630,0.862,
887.591,0.871,
886.551,0.882,
885.511,0.892,
884.472,0.902,
883.432,0.911,
882.393,0.92,
881.353,0.926,
880.313,0.932,
879.274,0.938,
878.234,0.943,
877.194,0.946,
876.155,0.949,
875.115,0.952,
874.075,0.954,
873.036,0.957,
871.996,0.958,
870.956,0.96,
869.917,0.963,
868.877,0.964,
867.838,0.966,
866.798,0.966,
865.758,0.967,
864.719,0.97,
863.679,0.974,
862.639,0.975,
861.600,0.977,
860.560,0.978,
859.520,0.984,
858.481,0.992,
857.441,0.993,
856.402,0.996,
855.362,0.998,
854.322,1,
853.283,1.001,
852.243,1.007,
851.203,1.009,
850.164,1.012,
849.124,1.015,
848.084,1.019,
847.045,1.022,
846.005,1.024,
844.965,1.024,
843.926,1.025,
842.886,1.025,
841.847,1.027,
840.807,1.027,
839.767,1.025,
838.728,1.024,
837.688,1.021,
836.648,1.019,
835.609,1.019,
834.569,1.018,
833.529,1.016,
832.490,1.016,
831.450,1.015,
830.411,1.013,
829.371,1.013,
828.331,1.012,
827.292,1.01,
826.252,1.01,
825.212,1.009,
824.173,1.009,
823.133,1.009,
822.093,1.009,
821.054,1.009,
820.014,1.009,
818.974,1.009,
817.935,1.007,
816.895,1.007,
815.856,1.007,
814.816,1.007,
813.776,1.007,
812.737,1.006,
811.697,1.004,
810.657,1.004,
809.618,1.004,
808.578,1.004,
807.538,1.004,
806.499,1.003,
805.459,1.001,
804.420,1.001,
803.380,1,
802.340,1,
801.301,0.998,
800.261,0.996,
799.221,0.993,
798.182,0.99,
797.142,0.984,
796.102,0.984,
795.063,0.978,
794.023,0.972,
792.983,0.963,
791.944,0.955,
790.904,0.949,
789.865,0.931,
788.825,0.92,
787.785,0.906,
786.746,0.899,
785.706,0.891,
784.666,0.889,
783.627,0.891,
782.587,0.899,
781.547,0.908,
780.508,0.918,
779.468,0.928,
778.429,0.938,
777.389,0.952,
776.349,0.957,
775.310,0.966,
774.270,0.974,
773.230,0.978,
772.191,0.984,
771.151,0.987,
770.111,0.993,
769.072,0.998,
768.032,1,
766.992,1,
765.953,1.001,
764.913,1.007,
763.874,1.007,
762.834,1.009,
761.794,1.012,
760.755,1.013,
759.715,1.013,
758.675,1.015,
757.636,1.016,
756.596,1.018,
755.556,1.018,
754.517,1.019,
753.477,1.021,
752.438,1.022,
751.398,1.022,
750.358,1.022,
749.319,1.024,
748.279,1.024,
747.239,1.025,
746.200,1.027,
745.160,1.027,
744.120,1.029,
743.081,1.03,
742.041,1.03,
741.001,1.03,
739.962,1.03,
738.922,1.03,
737.883,1.03,
736.843,1.032,
735.803,1.032,
734.764,1.032,
733.724,1.032,
732.684,1.032,
731.645,1.032,
730.605,1.032,
729.565,1.032,
728.526,1.032,
727.486,1.032,
726.447,1.032,
725.407,1.032,
724.367,1.032,
723.328,1.032,
722.288,1.032,
721.248,1.033,
720.209,1.033,
719.169,1.033,
718.129,1.032,
717.090,1.032,
716.050,1.033,
715.010,1.033,
713.971,1.033,
712.931,1.033,
711.892,1.033,
710.852,1.033,
709.812,1.033,
708.773,1.035,
707.733,1.035,
706.693,1.033,
705.654,1.033,
704.614,1.032,
703.574,1.032,
702.535,1.032,
701.495,1.032,
700.456,1.032,
699.416,1.032,
698.376,1.032,
697.337,1.032,
696.297,1.032,
695.257,1.032,
694.218,1.032,
693.178,1.032,
692.138,1.032,
691.099,1.032,
690.059,1.032,
689.019,1.032,
687.980,1.032,
686.940,1.03,
685.901,1.03,
684.861,1.029,
683.821,1.027,
682.782,1.027,
681.742,1.025,
680.702,1.025,
679.663,1.024,
678.623,1.024,
677.583,1.022,
676.544,1.022,
675.504,1.022,
674.465,1.021,
673.425,1.019,
672.385,1.018,
671.346,1.016,
670.306,1.016,
669.266,1.015,
668.227,1.013,
667.187,1.012,
666.147,1.01,
665.108,1.007,
664.068,1.006,
663.028,1.001,
661.989,0.996,
660.949,0.993,
659.910,0.98,
658.870,0.974,
657.830,0.966,
656.791,0.957,
655.751,0.955,
654.711,0.954,
653.672,0.955,
652.632,0.958,
651.592,0.992,
650.553,0.998,
649.513,1.0031,
648.474,1.0121,
647.434,1.027,
646.394,1.03,
645.355,1.032,
644.315,1.033,
643.275,1.033,
642.236,1.035,
641.196,1.036,
640.156,1.038,
639.117,1.041,
638.077,1.042,
637.037,1.044,
635.998,1.045,
634.958,1.047,
633.919,1.048,
632.879,1.05,
631.839,1.05,
630.800,1.051,
629.760,1.051,
628.720,1.051,
627.681,1.053,
626.641,1.056,
625.601,1.056,
624.562,1.056,
623.522,1.056,
622.483,1.056,
621.443,1.056,
620.403,1.056,
619.364,1.056,
618.324,1.058,
617.284,1.058,
616.245,1.056,
615.205,1.056,
614.165,1.055,
613.126,1.055,
612.086,1.055,
611.046,1.055,
610.007,1.053,
608.967,1.053,
607.928,1.053,
606.888,1.051,
605.848,1.051,
604.809,1.05,
603.769,1.05,
602.729,1.048,
601.690,1.047,
600.650,1.047,
599.610,1.042,
598.571,1.039,
597.531,1.036,
596.492,1.035,
595.452,1.033,
594.412,1.032,
593.373,1.03,
592.333,1.03,
591.293,1.03,
590.254,1.03,
589.214,1.03,
588.174,1.029,
587.135,1.027,
586.095,1.025,
585.055,1.024,
584.016,1.024,
582.976,1.022,
581.937,1.021,
580.897,1.021,
579.857,1.019,
578.818,1.019,
577.778,1.016,
576.738,1.013,
575.699,1.012,
574.659,1.009,
573.619,1.007,
572.580,1.007,
571.540,1.006,
570.501,1.001,
569.461,1,
568.421,0.995,
567.382,0.992,
566.342,0.989,
565.302,0.986,
564.263,0.983,
563.223,0.978,
562.183,0.975,
561.144,0.97,
560.104,0.966,
559.064,0.961,
558.025,0.957,
556.985,0.949,
555.946,0.943,
554.906,0.935,
553.866,0.928,
552.827,0.918,
551.787,0.908,
550.747,0.8959,
549.708,0.874,
548.668,0.853,
547.628,0.831,
546.589,0.811,
545.549,0.7879,
544.510,0.7609,
543.470,0.7298,
542.430,0.6938,
541.391,0.6488,
540.351,0.5928,
539.311,0.5208,
538.272,0.3909,
537.232,0.325,
536.192,0.275,
535.153,0.2197,
534.113,0.1768,
533.073,0.143,
532.034,0.139,
530.994,0.1391,
529.955,0.1713,
528.915,0.2761,
527.875,0.3481,
526.836,0.4171,
525.796,0.498,
524.756,0.5302,
523.717,0.5613,
522.677,0.6073,
521.637,0.6651,
520.598,0.6862,
519.558,0.7441,
518.519,0.781,
517.479,0.802,
516.439,0.819,
515.400,0.834,
514.360,0.8481,
513.320,0.8621,
512.281,0.873,
511.241,0.882,
510.201,0.889,
509.162,0.897,
508.122,0.902,
507.082,0.908,
506.043,0.912,
505.003,0.917,
503.964,0.92,
502.924,0.923,
501.884,0.926,
500.845,0.928,
499.805,0.929,
498.765,0.931,
497.726,0.931,
496.686,0.929,
495.646,0.922,
494.607,0.9,
493.567,0.8849,
492.528,0.874,
491.488,0.873,
490.448,0.874,
489.409,0.8851,
488.369,0.903,
487.329,0.912,
486.290,0.922,
485.250,0.932,
484.210,0.941,
483.171,0.951,
482.131,0.958,
481.091,0.964,
480.052,0.969,
479.012,0.974,
477.973,0.977,
476.933,0.98,
475.893,0.983,
474.854,0.984,
473.814,0.986,
472.774,0.987,
471.735,0.989,
470.695,0.99,
469.655,0.992,
468.616,0.995,
467.576,0.995,
466.537,0.996,
465.497,0.996,
464.457,0.998,
463.418,0.998,
462.378,0.998,
461.338,0.998,
460.299,0.998,
459.259,0.998,
458.219,0.998,
457.180,0.996,
456.140,0.995,
455.100,0.993,
454.061,0.992,
453.021,0.99,
451.982,0.987,
450.942,0.986,
449.902,0.984,
448.863,0.983,
447.823,0.981,
446.783,0.981,
445.744,0.98,
444.704,0.98,
443.664,0.98,
442.625,0.978,
441.585,0.978,
440.546,0.978,
439.506,0.98,
438.466,0.98,
437.427,0.98,
436.387,0.981,
435.347,0.981,
434.308,0.981,
433.268,0.983,
432.228,0.983,
431.189,0.981,
430.149,0.978,
429.109,0.974,
428.070,0.967,
427.030,0.964,
425.991,0.96,
424.951,0.955,
423.911,0.951,
422.872,0.946,
421.832,0.94,
