Wavelength nm.	kine_114252 - ...	kine_114252 - ...	kine_114252 - ...	kine_114252 - ...	kine_114252 - ...	kine_114252 - ...	kine_114252 - ...	kine_114252 - ...	kine_114252 - ...	kine_114252 - ...	kine_114252 - ...	kine_114252 - ...	kine_114252 - ...	kine_114252 - ...	kine_114252 - ...	kine_114252 - ...	kine_114252 - ...	kine_114252 - ...	kine_114252 - ...	kine_114252 - ...	kine_114252 - ...	kine_114252 - ...	kine_114252 - ...	kine_114252 - ...	kine_114252 - ...	kine_114252 - ...	kine_114252 - ...	kine_114252 - ...	kine_114252 - ...	kine_114252 - ...	kine_114252 - ...	kine_114252 - ...	kine_114252 - ...	kine_114252 - ...	kine_114252 - ...	kine_114252 - ...	kine_114252 - ...	kine_114252 - ...	kine_114252 - ...	kine_114252 - ...	kine_114252 - ...	kine_114252 - ...	kine_114252 - ...	kine_114252 - ...	kine_114252 - ...	kine_114252 - ...	kine_114252 - ...	kine_114252 - ...	kine_114252 - ...	kine_114252 - ...	kine_114252 - ...	kine_114252 - ...	kine_114252 - ...	kine_114252 - ...	kine_114252 - ...	kine_114252 - ...	kine_114252 - ...	kine_114252 - ...	kine_114252 - ...	kine_114252 - ...	kine_114252 - ...	kine_114252 - ...	kine_114252 - ...	kine_114252 - ...	kine_114252 - ...	kine_114252 - ...	kine_114252 - ...	kine_114252 - ...	kine_114252 - ...	kine_114252 - ...	kine_114252 - ...	kine_114252 - ...	kine_114252 - ...	kine_114252 - ...	kine_114252 - ...	kine_114252 - ...	kine_114252 - ...	kine_114252 - ...	kine_114252 - ...	kine_114252 - ...	kine_114252 - ...
500.00	0.60430	0.59321	0.58185	0.57465	0.56580	0.55866	0.55238	0.54814	0.54321	0.53847	0.53437	0.53037	0.52634	0.52310	0.51953	0.51675	0.51285	0.51003	0.50749	0.50523	0.50310	0.50107	0.49825	0.49661	0.49486	0.49279	0.49069	0.48932	0.48780	0.48645	0.48555	0.48385	0.48225	0.48182	0.47931	0.47907	0.47718	0.47671	0.47632	0.47484	0.47436	0.47323	0.47312	0.47259	0.47087	0.47083	0.47014	0.46962	0.46867	0.46798	0.46784	0.46732	0.46652	0.46614	0.46575	0.46493	0.46475	0.46466	0.46289	0.46331	0.46326	0.46276	0.46234	0.46195	0.46161	0.46115	0.46151	0.46088	0.46009	0.46032	0.46004	0.45898	0.45970	0.45873	0.45881	0.45846	0.45845	0.45739	0.45805	0.45758	0.45661
501.00	0.60243	0.59082	0.57995	0.56959	0.56275	0.55584	0.54882	0.54345	0.53924	0.53479	0.53048	0.52615	0.52169	0.51896	0.51453	0.51176	0.50809	0.50613	0.50271	0.50089	0.49855	0.49665	0.49357	0.49188	0.48910	0.48786	0.48532	0.48351	0.48257	0.48093	0.47926	0.47763	0.47635	0.47556	0.47374	0.47324	0.47135	0.47154	0.47048	0.46926	0.46911	0.46710	0.46710	0.46547	0.46555	0.46554	0.46442	0.46444	0.46314	0.46205	0.46197	0.46177	0.46088	0.46133	0.46058	0.46058	0.46027	0.46041	0.45980	0.45975	0.45917	0.45874	0.45832	0.45757	0.45685	0.45619	0.45588	0.45549	0.45503	0.45353	0.45483	0.45375	0.45354	0.45295	0.45208	0.45170	0.45095	0.45113	0.45059	0.45037	0.44925
502.00	0.59815	0.58638	0.57531	0.56566	0.55684	0.54947	0.54336	0.53716	0.53255	0.52750	0.52361	0.51954	0.51459	0.51134	0.50734	0.50402	0.49988	0.49793	0.49534	0.49278	0.49110	0.48830	0.48660	0.48368	0.48134	0.47960	0.47775	0.47473	0.47359	0.47176	0.47058	0.46984	0.46726	0.46575	0.46428	0.46320	0.46293	0.46140	0.46171	0.46015	0.45923	0.45820	0.45735	0.45685	0.45663	0.45631	0.45594	0.45562	0.45466	0.45416	0.45380	0.45275	0.45220	0.45282	0.45218	0.45216	0.45215	0.45225	0.45222	0.45263	0.45093	0.45046	0.45033	0.44912	0.44807	0.44824	0.44719	0.44612	0.44592	0.44551	0.44415	0.44369	0.44409	0.44296	0.44251	0.44154	0.44100	0.43999	0.43999	0.43938	0.43908
503.00	0.59228	0.57944	0.56781	0.55739	0.54918	0.54112	0.53470	0.52856	0.52374	0.51903	0.51370	0.50897	0.50447	0.50060	0.49680	0.49336	0.49060	0.48741	0.48487	0.48252	0.47957	0.47707	0.47540	0.47228	0.47014	0.46739	0.46608	0.46384	0.46220	0.46052	0.45864	0.45751	0.45520	0.45478	0.45366	0.45214	0.45143	0.44979	0.44865	0.44849	0.44661	0.44601	0.44545	0.44470	0.44394	0.44419	0.44419	0.44322	0.44206	0.44167	0.44165	0.44169	0.43982	0.44073	0.43938	0.43966	0.44090	0.44051	0.43996	0.43983	0.43926	0.43878	0.43857	0.43707	0.43605	0.43529	0.43451	0.43381	0.43229	0.43215	0.43155	0.43118	0.43074	0.43005	0.42951	0.42824	0.42795	0.42701	0.42649	0.42674	0.42561
504.00	0.58519	0.57176	0.56025	0.54979	0.54076	0.53321	0.52540	0.51969	0.51436	0.50993	0.50461	0.49902	0.49395	0.49107	0.48667	0.48365	0.48016	0.47728	0.47417	0.47156	0.46874	0.46724	0.46387	0.46123	0.45909	0.45665	0.45455	0.45242	0.45016	0.44840	0.44728	0.44550	0.44443	0.44339	0.44141	0.43968	0.43914	0.43780	0.43678	0.43623	0.43536	0.43407	0.43288	0.43270	0.43219	0.43142	0.43084	0.43076	0.43026	0.42887	0.42911	0.42780	0.42791	0.42804	0.42703	0.42746	0.42753	0.42685	0.42744	0.42680	0.42610	0.42582	0.42527	0.42378	0.42325	0.42211	0.42152	0.42040	0.42020	0.41928	0.41881	0.41831	0.41767	0.41673	0.41659	0.41547	0.41569	0.41502	0.41420	0.41327	0.41321
505.00	0.58123	0.56737	0.55422	0.54385	0.53426	0.52564	0.51862	0.51240	0.50674	0.50166	0.49681	0.49150	0.48698	0.48357	0.47913	0.47462	0.47172	0.46850	0.46567	0.46330	0.46050	0.45710	0.45449	0.45229	0.45008	0.44715	0.44526	0.44314	0.44101	0.43957	0.43721	0.43639	0.43528	0.43345	0.43222	0.43102	0.43000	0.42905	0.42799	0.42706	0.42501	0.42445	0.42356	0.42310	0.42209	0.42091	0.42076	0.42001	0.41936	0.41856	0.41835	0.41747	0.41751	0.41721	0.41597	0.41617	0.41588	0.41565	0.41632	0.41528	0.41484	0.41365	0.41281	0.41256	0.41197	0.41158	0.41066	0.40999	0.40921	0.40924	0.40790	0.40767	0.40784	0.40693	0.40615	0.40613	0.40561	0.40481	0.40460	0.40471	0.40446
506.00	0.58093	0.56582	0.55311	0.54159	0.53223	0.52458	0.51614	0.50966	0.50394	0.49928	0.49411	0.48870	0.48413	0.47998	0.47587	0.47166	0.46748	0.46458	0.46189	0.45808	0.45585	0.45305	0.45106	0.44804	0.44564	0.44384	0.44109	0.43976	0.43770	0.43526	0.43413	0.43282	0.43059	0.42915	0.42832	0.42684	0.42536	0.42442	0.42331	0.42229	0.42095	0.42013	0.41922	0.41873	0.41735	0.41633	0.41548	0.41536	0.41457	0.41358	0.41241	0.41273	0.41141	0.41130	0.41026	0.41020	0.40917	0.40928	0.40905	0.40872	0.40791	0.40707	0.40700	0.40612	0.40532	0.40548	0.40462	0.40453	0.40384	0.40406	0.40302	0.40304	0.40277	0.40235	0.40183	0.40156	0.40192	0.40152	0.40119	0.40050	0.40030
507.00	0.58405	0.56975	0.55654	0.54479	0.53511	0.52660	0.51984	0.51361	0.50719	0.50147	0.49794	0.49195	0.48704	0.48286	0.47879	0.47503	0.46999	0.46696	0.46395	0.46097	0.45793	0.45485	0.45245	0.45025	0.44768	0.44586	0.44408	0.44261	0.44075	0.43849	0.43645	0.43547	0.43475	0.43259	0.43067	0.42985	0.42863	0.42693	0.42659	0.42530	0.42316	0.42261	0.42203	0.42092	0.41938	0.41958	0.41823	0.41667	0.41560	0.41552	0.41519	0.41403	0.41283	0.41236	0.41222	0.41099	0.40976	0.40964	0.40902	0.40893	0.40791	0.40716	0.40679	0.40682	0.40597	0.40650	0.40633	0.40553	0.40561	0.40558	0.40556	0.40603	0.40488	0.40540	0.40510	0.40436	0.40522	0.40431	0.40483	0.40492	0.40481
508.00	0.59059	0.57643	0.56351	0.55184	0.54230	0.53305	0.52652	0.52008	0.51346	0.50875	0.50393	0.49868	0.49467	0.49028	0.48607	0.48211	0.47827	0.47425	0.47145	0.46715	0.46408	0.46193	0.45888	0.45726	0.45550	0.45398	0.45159	0.45031	0.44767	0.44621	0.44465	0.44341	0.44199	0.44031	0.43913	0.43719	0.43626	0.43513	0.43434	0.43331	0.43138	0.43016	0.42964	0.42892	0.42722	0.42714	0.42497	0.42374	0.42321	0.42290	0.42268	0.42108	0.41985	0.41921	0.41916	0.41804	0.41585	0.41521	0.41430	0.41389	0.41316	0.41323	0.41307	0.41312	0.41247	0.41303	0.41358	0.41313	0.41347	0.41379	0.41289	0.41308	0.41247	0.41297	0.41375	0.41330	0.41416	0.41404	0.41355	0.41399	0.41426
509.00	0.60051	0.58529	0.57293	0.56174	0.55262	0.54352	0.53658	0.53021	0.52444	0.51913	0.51449	0.50921	0.50511	0.50131	0.49615	0.49217	0.48872	0.48473	0.48104	0.47778	0.47551	0.47235	0.46966	0.46783	0.46613	0.46448	0.46227	0.46074	0.45987	0.45700	0.45551	0.45406	0.45315	0.45179	0.45044	0.44925	0.44726	0.44622	0.44537	0.44434	0.44326	0.44152	0.44103	0.44007	0.43920	0.43803	0.43708	0.43592	0.43455	0.43418	0.43409	0.43217	0.43188	0.43116	0.43131	0.42876	0.42734	0.42625	0.42481	0.42459	0.42430	0.42415	0.42330	0.42429	0.42496	0.42468	0.42518	0.42498	0.42509	0.42514	0.42551	0.42583	0.42529	0.42610	0.42580	0.42611	0.42676	0.42650	0.42636	0.42656	0.42722
510.00	0.61142	0.59688	0.58410	0.57234	0.56357	0.55535	0.54755	0.54116	0.53566	0.53032	0.52591	0.52120	0.51710	0.51222	0.50866	0.50498	0.50102	0.49689	0.49339	0.49068	0.48683	0.48500	0.48192	0.47929	0.47821	0.47650	0.47452	0.47285	0.47045	0.46995	0.46822	0.46658	0.46545	0.46423	0.46255	0.46160	0.45952	0.45852	0.45755	0.45705	0.45567	0.45391	0.45324	0.45319	0.45208	0.45038	0.45058	0.44865	0.44788	0.44768	0.44663	0.44542	0.44488	0.44386	0.44342	0.44255	0.44047	0.43972	0.43880	0.43829	0.43792	0.43765	0.43730	0.43755	0.43834	0.43834	0.43843	0.43815	0.43837	0.43862	0.43846	0.43842	0.43895	0.43905	0.43827	0.43888	0.43855	0.43944	0.43949	0.43901	0.43933
511.00	0.61990	0.60540	0.59231	0.58074	0.57098	0.56292	0.55543	0.54879	0.54281	0.53734	0.53299	0.52830	0.52418	0.51969	0.51586	0.51212	0.50748	0.50396	0.50092	0.49850	0.49526	0.49345	0.49007	0.48786	0.48631	0.48480	0.48237	0.48035	0.47899	0.47724	0.47506	0.47419	0.47269	0.47179	0.47029	0.46922	0.46779	0.46625	0.46596	0.46451	0.46345	0.46220	0.46152	0.46043	0.45998	0.45835	0.45827	0.45685	0.45672	0.45562	0.45544	0.45378	0.45372	0.45305	0.45287	0.45154	0.45063	0.44957	0.44834	0.44849	0.44814	0.44818	0.44762	0.44770	0.44719	0.44781	0.44709	0.44737	0.44766	0.44729	0.44685	0.44654	0.44685	0.44645	0.44635	0.44630	0.44639	0.44676	0.44568	0.44635	0.44623
512.00	0.62554	0.61015	0.59664	0.58570	0.57614	0.56743	0.55925	0.55398	0.54719	0.54156	0.53700	0.53237	0.52727	0.52319	0.51920	0.51529	0.51092	0.50747	0.50490	0.50166	0.49923	0.49602	0.49390	0.49157	0.48956	0.48719	0.48518	0.48245	0.48150	0.48026	0.47745	0.47666	0.47455	0.47382	0.47197	0.47115	0.46998	0.46941	0.46795	0.46729	0.46507	0.46473	0.46405	0.46374	0.46281	0.46203	0.46084	0.46025	0.45971	0.45871	0.45871	0.45760	0.45732	0.45638	0.45633	0.45586	0.45530	0.45409	0.45394	0.45353	0.45308	0.45249	0.45271	0.45118	0.45150	0.45158	0.45010	0.45125	0.45007	0.44945	0.44953	0.44873	0.44938	0.44907	0.44884	0.44832	0.44785	0.44759	0.44732	0.44714	0.44750
513.00	0.62663	0.60985	0.59634	0.58469	0.57432	0.56481	0.55736	0.55139	0.54509	0.54028	0.53382	0.52941	0.52464	0.51976	0.51583	0.51129	0.50843	0.50579	0.50219	0.49923	0.49649	0.49373	0.49083	0.48832	0.48621	0.48373	0.48158	0.47852	0.47750	0.47533	0.47424	0.47206	0.47115	0.46944	0.46842	0.46664	0.46583	0.46477	0.46340	0.46217	0.46095	0.46054	0.45979	0.45829	0.45873	0.45777	0.45715	0.45583	0.45585	0.45515	0.45414	0.45424	0.45363	0.45362	0.45228	0.45238	0.45270	0.45221	0.45167	0.45157	0.45122	0.45081	0.45038	0.44986	0.44887	0.44806	0.44739	0.44723	0.44636	0.44603	0.44536	0.44548	0.44452	0.44430	0.44375	0.44287	0.44235	0.44230	0.44180	0.44110	0.44078
514.00	0.62442	0.60747	0.59380	0.58112	0.57022	0.56163	0.55327	0.54579	0.54044	0.53478	0.52798	0.52355	0.51919	0.51392	0.50976	0.50530	0.50229	0.49915	0.49550	0.49296	0.49029	0.48645	0.48483	0.48179	0.47922	0.47601	0.47476	0.47155	0.47015	0.46806	0.46671	0.46476	0.46293	0.46194	0.46059	0.45882	0.45700	0.45657	0.45510	0.45448	0.45381	0.45188	0.45106	0.45072	0.44959	0.44943	0.44948	0.44869	0.44841	0.44738	0.44630	0.44669	0.44603	0.44624	0.44437	0.44520	0.44623	0.44515	0.44550	0.44421	0.44412	0.44326	0.44268	0.44159	0.44132	0.43971	0.43942	0.43916	0.43821	0.43760	0.43688	0.43618	0.43589	0.43501	0.43442	0.43405	0.43354	0.43186	0.43295	0.43125	0.43051
515.00	0.61867	0.60247	0.58723	0.57422	0.56372	0.55391	0.54460	0.53783	0.53194	0.52643	0.52072	0.51429	0.50952	0.50417	0.49956	0.49617	0.49258	0.48862	0.48559	0.48230	0.47948	0.47633	0.47442	0.47111	0.46772	0.46544	0.46266	0.46066	0.45801	0.45678	0.45568	0.45262	0.45149	0.45005	0.44804	0.44712	0.44567	0.44524	0.44351	0.44308	0.44181	0.44029	0.43981	0.43815	0.43775	0.43759	0.43705	0.43711	0.43631	0.43533	0.43446	0.43339	0.43387	0.43390	0.43350	0.43319	0.43417	0.43354	0.43377	0.43270	0.43302	0.43255	0.43097	0.42948	0.42937	0.42897	0.42777	0.42637	0.42481	0.42411	0.42405	0.42433	0.42344	0.42191	0.42162	0.42114	0.42049	0.41961	0.41891	0.41831	0.41800
516.00	0.61346	0.59619	0.58036	0.56691	0.55624	0.54557	0.53689	0.52905	0.52371	0.51678	0.51075	0.50456	0.49949	0.49456	0.49003	0.48534	0.48179	0.47833	0.47520	0.47174	0.46929	0.46530	0.46365	0.45999	0.45695	0.45403	0.45149	0.44893	0.44706	0.44546	0.44321	0.44156	0.43922	0.43777	0.43613	0.43503	0.43370	0.43231	0.43169	0.43110	0.42982	0.42846	0.42764	0.42650	0.42573	0.42499	0.42473	0.42447	0.42327	0.42187	0.42145	0.42140	0.42092	0.42136	0.42022	0.41961	0.42142	0.42140	0.42027	0.42059	0.41953	0.41865	0.41776	0.41736	0.41619	0.41549	0.41430	0.41391	0.41313	0.41152	0.41118	0.41009	0.40991	0.40936	0.40917	0.40887	0.40714	0.40629	0.40565	0.40523	0.40476
517.00	0.60927	0.59087	0.57494	0.56153	0.54958	0.53853	0.52955	0.52267	0.51548	0.50915	0.50254	0.49718	0.49131	0.48562	0.48128	0.47648	0.47259	0.46894	0.46558	0.46277	0.45919	0.45527	0.45348	0.44988	0.44648	0.44433	0.44181	0.43957	0.43740	0.43515	0.43265	0.43084	0.42936	0.42710	0.42637	0.42461	0.42348	0.42268	0.42075	0.41935	0.41800	0.41736	0.41687	0.41615	0.41480	0.41440	0.41410	0.41323	0.41235	0.41107	0.41050	0.41036	0.40962	0.41015	0.40875	0.40833	0.40872	0.40899	0.40848	0.40758	0.40768	0.40694	0.40592	0.40516	0.40340	0.40285	0.40210	0.40186	0.40127	0.40020	0.39974	0.39905	0.39856	0.39820	0.39698	0.39675	0.39655	0.39624	0.39483	0.39452	0.39380
518.00	0.60911	0.58948	0.57339	0.55878	0.54747	0.53624	0.52702	0.51966	0.51169	0.50530	0.49953	0.49328	0.48738	0.48235	0.47760	0.47256	0.46845	0.46465	0.46108	0.45668	0.45366	0.45003	0.44708	0.44383	0.44131	0.43894	0.43572	0.43332	0.43153	0.42914	0.42738	0.42539	0.42424	0.42215	0.42064	0.41948	0.41816	0.41637	0.41553	0.41415	0.41270	0.41147	0.41125	0.40989	0.40844	0.40751	0.40737	0.40602	0.40526	0.40426	0.40461	0.40345	0.40279	0.40238	0.40175	0.40157	0.40137	0.40073	0.40055	0.39988	0.39847	0.39835	0.39777	0.39657	0.39631	0.39563	0.39555	0.39489	0.39332	0.39303	0.39281	0.39285	0.39215	0.39186	0.39165	0.39174	0.39111	0.39058	0.38986	0.38986	0.39000
519.00	0.61086	0.59151	0.57488	0.56131	0.54874	0.53864	0.52899	0.51982	0.51271	0.50691	0.50028	0.49399	0.48933	0.48307	0.47823	0.47353	0.46824	0.46423	0.46008	0.45709	0.45323	0.44997	0.44670	0.44449	0.44161	0.43878	0.43680	0.43457	0.43224	0.43005	0.42775	0.42674	0.42459	0.42269	0.42154	0.42051	0.41810	0.41700	0.41539	0.41383	0.41333	0.41209	0.41075	0.40929	0.40916	0.40755	0.40733	0.40563	0.40570	0.40446	0.40403	0.40246	0.40153	0.40096	0.40032	0.39933	0.39819	0.39802	0.39736	0.39675	0.39680	0.39578	0.39560	0.39531	0.39507	0.39374	0.39412	0.39393	0.39356	0.39303	0.39272	0.39302	0.39202	0.39219	0.39193	0.39191	0.39155	0.39176	0.39165	0.39192	0.39147
520.00	0.61862	0.59975	0.58236	0.56912	0.55566	0.54488	0.53624	0.52749	0.51956	0.51339	0.50776	0.50184	0.49681	0.49056	0.48544	0.48147	0.47683	0.47188	0.46712	0.46369	0.46029	0.45762	0.45435	0.45193	0.44905	0.44645	0.44397	0.44196	0.44058	0.43806	0.43593	0.43452	0.43318	0.43113	0.42913	0.42764	0.42634	0.42478	0.42342	0.42269	0.42111	0.41968	0.41912	0.41782	0.41683	0.41618	0.41462	0.41370	0.41211	0.41173	0.41034	0.40954	0.40963	0.40756	0.40847	0.40653	0.40493	0.40390	0.40239	0.40220	0.40221	0.40156	0.40149	0.40127	0.40134	0.40125	0.40133	0.40135	0.40080	0.40080	0.40133	0.40107	0.40066	0.40117	0.40093	0.40097	0.40068	0.40100	0.40093	0.40139	0.40170
521.00	0.62997	0.60984	0.59311	0.57934	0.56597	0.55542	0.54596	0.53815	0.53099	0.52443	0.51953	0.51316	0.50702	0.50263	0.49725	0.49242	0.48733	0.48315	0.47942	0.47527	0.47189	0.46870	0.46531	0.46343	0.46084	0.45914	0.45689	0.45438	0.45331	0.45043	0.44926	0.44705	0.44585	0.44433	0.44295	0.44083	0.43944	0.43843	0.43706	0.43577	0.43444	0.43263	0.43212	0.43029	0.42938	0.42856	0.42748	0.42584	0.42509	0.42498	0.42328	0.42245	0.42159	0.41995	0.42064	0.41853	0.41717	0.41495	0.41453	0.41377	0.41439	0.41320	0.41274	0.41357	0.41380	0.41322	0.41377	0.41421	0.41387	0.41404	0.41480	0.41509	0.41466	0.41489	0.41529	0.41537	0.41549	0.41540	0.41533	0.41634	0.41625
522.00	0.64098	0.62245	0.60541	0.59104	0.57846	0.56883	0.55897	0.55134	0.54401	0.53708	0.53172	0.52591	0.52108	0.51601	0.51082	0.50647	0.50085	0.49629	0.49249	0.48903	0.48478	0.48174	0.47950	0.47730	0.47497	0.47289	0.47122	0.46949	0.46717	0.46519	0.46279	0.46157	0.46040	0.45934	0.45682	0.45610	0.45431	0.45250	0.45126	0.45060	0.44904	0.44723	0.44659	0.44618	0.44568	0.44392	0.44256	0.44096	0.44015	0.43959	0.43929	0.43836	0.43718	0.43563	0.43541	0.43432	0.43111	0.43044	0.42959	0.42947	0.42889	0.42946	0.42760	0.42857	0.42908	0.42962	0.42926	0.43064	0.42998	0.43000	0.43049	0.43060	0.43038	0.43040	0.43056	0.43074	0.43074	0.43066	0.43142	0.43137	0.43259
523.00	0.65220	0.63274	0.61688	0.60211	0.58974	0.57921	0.56974	0.56229	0.55541	0.54875	0.54321	0.53700	0.53157	0.52703	0.52201	0.51764	0.51343	0.50888	0.50559	0.50130	0.49710	0.49429	0.49106	0.48941	0.48762	0.48510	0.48305	0.48070	0.47959	0.47697	0.47504	0.47354	0.47147	0.47065	0.46980	0.46791	0.46659	0.46543	0.46420	0.46290	0.46220	0.46057	0.45922	0.45826	0.45813	0.45725	0.45545	0.45474	0.45350	0.45275	0.45264	0.45176	0.45073	0.44919	0.44900	0.44792	0.44615	0.44413	0.44461	0.44307	0.44330	0.44361	0.44228	0.44274	0.44304	0.44315	0.44356	0.44295	0.44423	0.44358	0.44416	0.44421	0.44324	0.44385	0.44404	0.44347	0.44338	0.44374	0.44340	0.44386	0.44379
524.00	0.66102	0.64273	0.62617	0.61107	0.59903	0.58861	0.57970	0.57134	0.56430	0.55753	0.55254	0.54577	0.54134	0.53606	0.53075	0.52590	0.52211	0.51775	0.51405	0.51085	0.50742	0.50406	0.50125	0.49912	0.49697	0.49388	0.49166	0.48989	0.48786	0.48521	0.48442	0.48205	0.48076	0.47890	0.47736	0.47642	0.47540	0.47391	0.47248	0.47144	0.47071	0.46899	0.46840	0.46865	0.46666	0.46639	0.46508	0.46355	0.46284	0.46279	0.46232	0.46085	0.46080	0.45918	0.45898	0.45844	0.45706	0.45556	0.45610	0.45520	0.45535	0.45363	0.45370	0.45375	0.45399	0.45383	0.45381	0.45402	0.45316	0.45306	0.45336	0.45269	0.45288	0.45246	0.45262	0.45172	0.45205	0.45271	0.45167	0.45177	0.45132
525.00	0.66741	0.64730	0.62927	0.61608	0.60272	0.59231	0.58243	0.57479	0.56694	0.56083	0.55528	0.54891	0.54298	0.53808	0.53266	0.52835	0.52475	0.52033	0.51615	0.51252	0.50972	0.50659	0.50369	0.50094	0.49788	0.49605	0.49346	0.49079	0.48967	0.48750	0.48545	0.48326	0.48175	0.47981	0.47840	0.47752	0.47637	0.47401	0.47379	0.47250	0.47171	0.47046	0.46957	0.46877	0.46772	0.46671	0.46597	0.46557	0.46499	0.46461	0.46350	0.46351	0.46245	0.46163	0.46106	0.46129	0.46055	0.45984	0.45994	0.45911	0.45823	0.45794	0.45840	0.45701	0.45667	0.45665	0.45618	0.45589	0.45479	0.45480	0.45468	0.45377	0.45387	0.45312	0.45327	0.45207	0.45233	0.45174	0.45125	0.45101	0.45058
526.00	0.66700	0.64752	0.62979	0.61466	0.60046	0.58987	0.58059	0.57178	0.56533	0.55885	0.55166	0.54503	0.53960	0.53377	0.52924	0.52416	0.52000	0.51652	0.51232	0.50894	0.50538	0.50205	0.49977	0.49604	0.49358	0.49149	0.48865	0.48594	0.48401	0.48140	0.48024	0.47828	0.47572	0.47452	0.47412	0.47159	0.47031	0.46946	0.46814	0.46660	0.46477	0.46430	0.46348	0.46277	0.46232	0.46154	0.46115	0.46084	0.45972	0.45941	0.45778	0.45842	0.45694	0.45793	0.45691	0.45663	0.45652	0.45630	0.45600	0.45480	0.45376	0.45404	0.45398	0.45350	0.45168	0.45188	0.45123	0.45003	0.44948	0.44841	0.44836	0.44770	0.44773	0.44735	0.44566	0.44631	0.44511	0.44488	0.44365	0.44356	0.44283
527.00	0.66511	0.64384	0.62569	0.60988	0.59684	0.58514	0.57492	0.56613	0.55862	0.55281	0.54450	0.53897	0.53281	0.52717	0.52195	0.51618	0.51312	0.50813	0.50559	0.50167	0.49748	0.49460	0.49164	0.48808	0.48511	0.48233	0.47928	0.47754	0.47468	0.47206	0.47089	0.46799	0.46592	0.46469	0.46348	0.46205	0.46083	0.45942	0.45785	0.45735	0.45635	0.45546	0.45428	0.45328	0.45206	0.45116	0.45155	0.45041	0.45012	0.44891	0.44902	0.44872	0.44802	0.44849	0.44649	0.44687	0.44767	0.44748	0.44643	0.44642	0.44608	0.44613	0.44499	0.44415	0.44267	0.44109	0.44077	0.44009	0.43990	0.43881	0.43843	0.43729	0.43611	0.43533	0.43516	0.43409	0.43333	0.43270	0.43219	0.43144	0.43054
528.00	0.66136	0.63874	0.61928	0.60352	0.58932	0.57707	0.56716	0.55825	0.55012	0.54261	0.53452	0.52952	0.52162	0.51645	0.51042	0.50612	0.50168	0.49785	0.49411	0.49061	0.48672	0.48314	0.47988	0.47649	0.47369	0.47016	0.46771	0.46508	0.46232	0.45964	0.45801	0.45584	0.45315	0.45148	0.44983	0.44951	0.44765	0.44571	0.44562	0.44369	0.44326	0.44184	0.44123	0.44044	0.43982	0.43842	0.43770	0.43807	0.43703	0.43575	0.43562	0.43481	0.43458	0.43457	0.43272	0.43353	0.43465	0.43407	0.43451	0.43404	0.43361	0.43267	0.43157	0.42987	0.42967	0.42800	0.42691	0.42622	0.42517	0.42453	0.42351	0.42330	0.42275	0.42174	0.42101	0.41986	0.41956	0.41868	0.41819	0.41731	0.41643
529.00	0.65471	0.63176	0.61284	0.59597	0.58098	0.56853	0.55758	0.54885	0.54062	0.53274	0.52516	0.51793	0.51230	0.50527	0.50051	0.49465	0.49065	0.48518	0.48203	0.47828	0.47468	0.47146	0.46662	0.46394	0.46081	0.45714	0.45502	0.45191	0.44900	0.44718	0.44477	0.44234	0.44076	0.43782	0.43708	0.43527	0.43464	0.43256	0.43180	0.43081	0.42924	0.42812	0.42756	0.42625	0.42511	0.42451	0.42409	0.42413	0.42301	0.42205	0.42103	0.42043	0.42060	0.42115	0.41854	0.41873	0.42091	0.41978	0.41992	0.41980	0.41866	0.41706	0.41737	0.41550	0.41476	0.41369	0.41292	0.41205	0.41064	0.41046	0.40916	0.40848	0.40784	0.40781	0.40687	0.40568	0.40474	0.40382	0.40312	0.40326	0.40171
530.00	0.65031	0.62733	0.60564	0.58953	0.57395	0.56104	0.54933	0.54078	0.53181	0.52443	0.51722	0.50961	0.50358	0.49619	0.49102	0.48509	0.48032	0.47538	0.47161	0.46770	0.46408	0.46065	0.45749	0.45390	0.45101	0.44698	0.44350	0.44082	0.43828	0.43643	0.43432	0.43195	0.43003	0.42784	0.42583	0.42520	0.42311	0.42138	0.42143	0.41969	0.41806	0.41737	0.41534	0.41466	0.41364	0.41303	0.41306	0.41195	0.41104	0.40957	0.40851	0.40886	0.40816	0.40744	0.40692	0.40682	0.40745	0.40740	0.40727	0.40566	0.40528	0.40492	0.40418	0.40313	0.40278	0.40165	0.40021	0.39940	0.39800	0.39804	0.39684	0.39689	0.39599	0.39535	0.39419	0.39482	0.39445	0.39281	0.39245	0.39171	0.39104
531.00	0.64943	0.62559	0.60382	0.58662	0.57127	0.55851	0.54660	0.53618	0.52814	0.52018	0.51292	0.50583	0.49815	0.49179	0.48663	0.47991	0.47494	0.47029	0.46616	0.46154	0.45778	0.45508	0.45054	0.44797	0.44435	0.44124	0.43818	0.43560	0.43268	0.43021	0.42935	0.42706	0.42449	0.42177	0.42063	0.41857	0.41743	0.41597	0.41429	0.41374	0.41177	0.41069	0.40985	0.40968	0.40706	0.40679	0.40591	0.40500	0.40410	0.40342	0.40336	0.40165	0.40075	0.40087	0.39961	0.39872	0.39919	0.39838	0.39864	0.39691	0.39692	0.39610	0.39586	0.39500	0.39383	0.39343	0.39262	0.39252	0.39195	0.39099	0.39064	0.38980	0.38973	0.38969	0.38897	0.38863	0.38763	0.38739	0.38706	0.38656	0.38666
532.00	0.65177	0.62746	0.60629	0.58872	0.57273	0.55969	0.54781	0.53750	0.52931	0.52173	0.51407	0.50653	0.49942	0.49324	0.48810	0.48184	0.47595	0.47107	0.46667	0.46215	0.45863	0.45447	0.45155	0.44807	0.44504	0.44213	0.43941	0.43707	0.43381	0.43174	0.43012	0.42796	0.42580	0.42477	0.42253	0.42095	0.41918	0.41754	0.41598	0.41463	0.41313	0.41145	0.41089	0.40929	0.40869	0.40741	0.40586	0.40495	0.40447	0.40395	0.40235	0.40189	0.40117	0.40011	0.40011	0.39886	0.39758	0.39692	0.39584	0.39594	0.39552	0.39427	0.39361	0.39384	0.39361	0.39267	0.39248	0.39211	0.39154	0.39267	0.39183	0.39108	0.39139	0.39054	0.39122	0.39076	0.39084	0.39139	0.39067	0.39104	0.39074
533.00	0.65915	0.63393	0.61282	0.59583	0.58017	0.56580	0.55467	0.54529	0.53605	0.52835	0.52104	0.51477	0.50807	0.50174	0.49507	0.48932	0.48502	0.47901	0.47389	0.46950	0.46621	0.46161	0.45917	0.45660	0.45261	0.45131	0.44774	0.44535	0.44248	0.44029	0.43886	0.43719	0.43533	0.43296	0.43144	0.42973	0.42829	0.42657	0.42596	0.42412	0.42293	0.42139	0.42031	0.41910	0.41789	0.41665	0.41504	0.41328	0.41309	0.41239	0.41116	0.40984	0.40949	0.40744	0.40721	0.40582	0.40395	0.40300	0.40301	0.40155	0.40161	0.40107	0.39984	0.40008	0.40042	0.40112	0.40034	0.40122	0.40083	0.40125	0.40093	0.40061	0.40120	0.40198	0.40142	0.40137	0.40221	0.40210	0.40234	0.40261	0.40216
534.00	0.66978	0.64483	0.62462	0.60683	0.59079	0.57809	0.56721	0.55741	0.54818	0.54085	0.53479	0.52697	0.52090	0.51490	0.50934	0.50363	0.49685	0.49308	0.48802	0.48319	0.47966	0.47708	0.47194	0.47005	0.46751	0.46560	0.46248	0.46023	0.45920	0.45647	0.45406	0.45232	0.45037	0.44787	0.44691	0.44608	0.44375	0.44349	0.44115	0.44085	0.43866	0.43733	0.43635	0.43444	0.43336	0.43262	0.43092	0.42952	0.42888	0.42844	0.42752	0.42639	0.42475	0.42287	0.42314	0.42152	0.41914	0.41770	0.41760	0.41538	0.41638	0.41584	0.41494	0.41608	0.41658	0.41683	0.41679	0.41662	0.41704	0.41724	0.41802	0.41825	0.41756	0.41814	0.41858	0.41854	0.42007	0.42009	0.41948	0.42079	0.42098
535.00	0.68314	0.65806	0.63836	0.62165	0.60592	0.59280	0.58114	0.57254	0.56420	0.55682	0.54934	0.54374	0.53769	0.53044	0.52515	0.51904	0.51397	0.51007	0.50505	0.49991	0.49671	0.49347	0.49012	0.48822	0.48504	0.48202	0.48064	0.47834	0.47600	0.47507	0.47260	0.47115	0.46939	0.46706	0.46573	0.46421	0.46255	0.46108	0.45984	0.45970	0.45736	0.45621	0.45478	0.45408	0.45248	0.45220	0.45012	0.44819	0.44823	0.44774	0.44641	0.44471	0.44430	0.44285	0.44388	0.44130	0.43804	0.43750	0.43622	0.43584	0.43528	0.43425	0.43468	0.43508	0.43626	0.43606	0.43722	0.43635	0.43746	0.43729	0.43782	0.43725	0.43854	0.43749	0.43899	0.43931	0.43919	0.44032	0.43944	0.44033	0.44053
536.00	0.69579	0.67248	0.65080	0.63389	0.61913	0.60649	0.59586	0.58597	0.57719	0.57013	0.56485	0.55748	0.55180	0.54541	0.54051	0.53481	0.52895	0.52479	0.52047	0.51634	0.51187	0.50941	0.50573	0.50250	0.50028	0.49901	0.49614	0.49384	0.49195	0.49023	0.48756	0.48672	0.48522	0.48407	0.48151	0.47970	0.47916	0.47748	0.47708	0.47498	0.47362	0.47278	0.47113	0.46984	0.46900	0.46892	0.46817	0.46602	0.46608	0.46452	0.46367	0.46284	0.46162	0.46066	0.46129	0.45849	0.45639	0.45519	0.45471	0.45530	0.45451	0.45337	0.45356	0.45376	0.45407	0.45475	0.45415	0.45452	0.45468	0.45440	0.45532	0.45458	0.45462	0.45540	0.45506	0.45501	0.45589	0.45579	0.45646	0.45588	0.45585
537.00	0.70452	0.68029	0.66015	0.64323	0.62845	0.61593	0.60493	0.59553	0.58654	0.58052	0.57343	0.56593	0.56034	0.55570	0.54938	0.54417	0.53842	0.53432	0.53009	0.52549	0.52188	0.51901	0.51616	0.51309	0.51061	0.50799	0.50519	0.50287	0.50112	0.49866	0.49765	0.49564	0.49380	0.49268	0.49070	0.48912	0.48718	0.48619	0.48518	0.48505	0.48273	0.48172	0.48165	0.48045	0.47877	0.47877	0.47699	0.47602	0.47549	0.47461	0.47416	0.47300	0.47260	0.47158	0.47157	0.47031	0.46858	0.46756	0.46706	0.46629	0.46651	0.46555	0.46519	0.46560	0.46539	0.46567	0.46553	0.46513	0.46570	0.46546	0.46473	0.46513	0.46522	0.46436	0.46486	0.46384	0.46380	0.46429	0.46398	0.46367	0.46406
538.00	0.71119	0.68687	0.66622	0.64931	0.63321	0.62091	0.61019	0.60036	0.59137	0.58494	0.57805	0.57045	0.56432	0.55906	0.55268	0.54770	0.54242	0.53802	0.53497	0.53012	0.52608	0.52283	0.52016	0.51733	0.51380	0.51147	0.50895	0.50608	0.50399	0.50196	0.50035	0.49771	0.49615	0.49439	0.49235	0.49175	0.49054	0.48829	0.48763	0.48654	0.48526	0.48454	0.48364	0.48233	0.48170	0.48120	0.47989	0.47982	0.47813	0.47769	0.47686	0.47633	0.47643	0.47507	0.47507	0.47404	0.47396	0.47369	0.47321	0.47134	0.47201	0.47119	0.47052	0.47103	0.47055	0.46982	0.46992	0.46894	0.46899	0.46780	0.46719	0.46785	0.46726	0.46663	0.46661	0.46549	0.46530	0.46557	0.46483	0.46430	0.46368
539.00	0.71326	0.68859	0.66719	0.64871	0.63302	0.61966	0.60904	0.59945	0.59127	0.58415	0.57610	0.56810	0.56207	0.55576	0.55105	0.54509	0.53941	0.53416	0.53170	0.52733	0.52391	0.52056	0.51693	0.51312	0.51045	0.50772	0.50482	0.50180	0.49957	0.49806	0.49555	0.49360	0.49142	0.48976	0.48797	0.48648	0.48573	0.48427	0.48331	0.48119	0.48094	0.47985	0.47865	0.47781	0.47662	0.47562	0.47587	0.47512	0.47478	0.47381	0.47291	0.47244	0.47202	0.47202	0.47101	0.47172	0.47169	0.47061	0.47042	0.46989	0.46883	0.46832	0.46868	0.46716	0.46669	0.46581	0.46533	0.46495	0.46334	0.46362	0.46290	0.46239	0.46158	0.46156	0.46058	0.45986	0.45949	0.45834	0.45784	0.45758	0.45657
540.00	0.71176	0.68625	0.66437	0.64510	0.62888	0.61492	0.60368	0.59430	0.58581	0.57802	0.56939	0.56187	0.55568	0.54901	0.54271	0.53790	0.53241	0.52805	0.52382	0.51977	0.51635	0.51275	0.50901	0.50564	0.50189	0.49935	0.49597	0.49360	0.49054	0.48854	0.48655	0.48437	0.48231	0.48062	0.47865	0.47746	0.47585	0.47423	0.47355	0.47236	0.47052	0.46930	0.46919	0.46839	0.46746	0.46670	0.46631	0.46635	0.46476	0.46395	0.46351	0.46316	0.46263	0.46302	0.46172	0.46209	0.46389	0.46204	0.46212	0.46151	0.46083	0.45974	0.46050	0.45883	0.45813	0.45655	0.45610	0.45489	0.45354	0.45385	0.45267	0.45191	0.45159	0.45081	0.44975	0.44919	0.44840	0.44732	0.44629	0.44545	0.44458
541.00	0.70583	0.67927	0.65708	0.63723	0.62066	0.60623	0.59486	0.58474	0.57539	0.56734	0.55950	0.55127	0.54429	0.53704	0.53125	0.52507	0.52079	0.51638	0.51121	0.50792	0.50358	0.50101	0.49680	0.49252	0.48928	0.48576	0.48228	0.47991	0.47677	0.47476	0.47198	0.47021	0.46770	0.46596	0.46396	0.46334	0.46143	0.46017	0.45965	0.45777	0.45668	0.45533	0.45474	0.45398	0.45240	0.45218	0.45231	0.45214	0.45031	0.44987	0.44872	0.44832	0.44759	0.44831	0.44708	0.44729	0.44883	0.44877	0.44732	0.44789	0.44712	0.44599	0.44591	0.44469	0.44300	0.44219	0.44080	0.43968	0.43923	0.43788	0.43727	0.43658	0.43627	0.43453	0.43379	0.43338	0.43166	0.43156	0.43077	0.42965	0.42910
542.00	0.69955	0.67271	0.64969	0.62868	0.61096	0.59635	0.58397	0.57391	0.56503	0.55581	0.54727	0.53940	0.53172	0.52451	0.51798	0.51223	0.50781	0.50296	0.49883	0.49413	0.49049	0.48671	0.48269	0.47899	0.47536	0.47207	0.46841	0.46521	0.46266	0.46029	0.45764	0.45560	0.45294	0.45146	0.44883	0.44800	0.44685	0.44520	0.44387	0.44245	0.44087	0.44011	0.43931	0.43760	0.43709	0.43615	0.43588	0.43600	0.43461	0.43403	0.43282	0.43236	0.43182	0.43253	0.43130	0.43134	0.43257	0.43295	0.43277	0.43191	0.43106	0.43065	0.42993	0.42889	0.42688	0.42547	0.42447	0.42339	0.42228	0.42183	0.42077	0.42042	0.41945	0.41831	0.41732	0.41757	0.41606	0.41542	0.41500	0.41315	0.41339
543.00	0.69261	0.66477	0.64080	0.61897	0.60187	0.58729	0.57352	0.56342	0.55401	0.54477	0.53683	0.52814	0.52028	0.51328	0.50723	0.50027	0.49522	0.48966	0.48528	0.48158	0.47670	0.47333	0.46935	0.46537	0.46127	0.45842	0.45432	0.45175	0.44876	0.44611	0.44408	0.44126	0.43924	0.43753	0.43509	0.43379	0.43231	0.43043	0.42914	0.42789	0.42680	0.42526	0.42515	0.42336	0.42246	0.42081	0.42111	0.42026	0.41926	0.41863	0.41790	0.41706	0.41696	0.41728	0.41596	0.41599	0.41704	0.41709	0.41608	0.41579	0.41461	0.41455	0.41396	0.41239	0.41089	0.41047	0.40887	0.40783	0.40745	0.40632	0.40546	0.40506	0.40445	0.40336	0.40275	0.40093	0.40095	0.40037	0.39967	0.39881	0.39782
544.00	0.68748	0.65972	0.63411	0.61260	0.59532	0.57993	0.56674	0.55513	0.54602	0.53718	0.52875	0.51991	0.51218	0.50490	0.49737	0.49262	0.48637	0.48109	0.47607	0.47175	0.46808	0.46356	0.45925	0.45641	0.45220	0.44820	0.44503	0.44242	0.43920	0.43711	0.43455	0.43199	0.42989	0.42748	0.42600	0.42493	0.42208	0.42148	0.41944	0.41804	0.41695	0.41584	0.41514	0.41309	0.41217	0.41150	0.41077	0.40977	0.40869	0.40784	0.40693	0.40624	0.40582	0.40610	0.40460	0.40455	0.40467	0.40468	0.40354	0.40351	0.40284	0.40161	0.40172	0.39946	0.40071	0.39846	0.39715	0.39672	0.39620	0.39551	0.39530	0.39398	0.39387	0.39349	0.39220	0.39206	0.39132	0.39021	0.39022	0.38997	0.38967
545.00	0.68622	0.65722	0.63167	0.61106	0.59334	0.57683	0.56472	0.55356	0.54221	0.53378	0.52497	0.51729	0.50906	0.50219	0.49488	0.48911	0.48287	0.47767	0.47294	0.46793	0.46283	0.45926	0.45596	0.45131	0.44843	0.44518	0.44150	0.43917	0.43619	0.43324	0.43166	0.42870	0.42661	0.42552	0.42297	0.42199	0.41954	0.41783	0.41718	0.41532	0.41383	0.41224	0.41122	0.41028	0.40901	0.40760	0.40695	0.40567	0.40460	0.40455	0.40275	0.40260	0.40170	0.40088	0.40009	0.39966	0.39916	0.39818	0.39787	0.39687	0.39600	0.39588	0.39545	0.39465	0.39372	0.39383	0.39257	0.39239	0.39261	0.39225	0.39176	0.39142	0.39077	0.39056	0.38991	0.38988	0.38978	0.38982	0.38909	0.38983	0.38872
546.00	0.68911	0.66036	0.63562	0.61417	0.59667	0.58120	0.56857	0.55740	0.54705	0.53864	0.53034	0.52163	0.51463	0.50683	0.50010	0.49409	0.48769	0.48199	0.47690	0.47112	0.46754	0.46386	0.45993	0.45689	0.45360	0.44993	0.44748	0.44440	0.44293	0.43948	0.43748	0.43538	0.43344	0.43101	0.43022	0.42811	0.42563	0.42444	0.42283	0.42163	0.41990	0.41815	0.41695	0.41670	0.41523	0.41384	0.41288	0.41175	0.41027	0.40981	0.40893	0.40792	0.40777	0.40507	0.40524	0.40432	0.40210	0.40164	0.40046	0.39965	0.39952	0.39829	0.39788	0.39843	0.39770	0.39862	0.39806	0.39798	0.39810	0.39820	0.39806	0.39792	0.39745	0.39759	0.39779	0.39740	0.39802	0.39811	0.39774	0.39784	0.39823
547.00	0.69808	0.66796	0.64426	0.62347	0.60580	0.59048	0.57819	0.56642	0.55687	0.54775	0.54043	0.53223	0.52513	0.51804	0.51172	0.50566	0.49916	0.49380	0.48759	0.48358	0.47919	0.47561	0.47159	0.46881	0.46512	0.46350	0.46057	0.45860	0.45610	0.45351	0.45236	0.44999	0.44773	0.44566	0.44400	0.44266	0.44076	0.43910	0.43770	0.43652	0.43480	0.43309	0.43271	0.43101	0.42946	0.42832	0.42662	0.42573	0.42456	0.42388	0.42203	0.42186	0.42134	0.41824	0.41879	0.41703	0.41472	0.41370	0.41277	0.41145	0.41105	0.41141	0.41062	0.41173	0.41147	0.41202	0.41126	0.41267	0.41328	0.41316	0.41333	0.41308	0.41332	0.41365	0.41388	0.41407	0.41440	0.41472	0.41497	0.41569	0.41582
548.00	0.70987	0.68197	0.65745	0.63681	0.61988	0.60599	0.59292	0.58151	0.57278	0.56446	0.55762	0.54992	0.54219	0.53674	0.52969	0.52326	0.51757	0.51199	0.50567	0.50205	0.49759	0.49359	0.49144	0.48821	0.48568	0.48255	0.48056	0.47786	0.47657	0.47464	0.47194	0.46963	0.46887	0.46721	0.46494	0.46311	0.46284	0.46071	0.45914	0.45836	0.45609	0.45507	0.45387	0.45298	0.45155	0.45030	0.44774	0.44667	0.44675	0.44545	0.44408	0.44391	0.44218	0.44044	0.44121	0.43901	0.43560	0.43437	0.43335	0.43290	0.43229	0.43244	0.43221	0.43235	0.43272	0.43372	0.43407	0.43496	0.43555	0.43543	0.43495	0.43584	0.43659	0.43626	0.43662	0.43664	0.43812	0.43868	0.43881	0.43926	0.43976
549.00	0.72354	0.69557	0.67254	0.65237	0.63512	0.62138	0.60833	0.59849	0.58885	0.58141	0.57430	0.56691	0.56043	0.55373	0.54774	0.54172	0.53534	0.53050	0.52533	0.52096	0.51692	0.51325	0.51012	0.50748	0.50544	0.50215	0.49998	0.49785	0.49658	0.49416	0.49128	0.49072	0.48813	0.48689	0.48549	0.48426	0.48232	0.48096	0.47924	0.47907	0.47697	0.47566	0.47466	0.47405	0.47246	0.47176	0.47004	0.46811	0.46750	0.46706	0.46571	0.46478	0.46388	0.46196	0.46221	0.45999	0.45747	0.45651	0.45562	0.45467	0.45444	0.45429	0.45333	0.45453	0.45492	0.45586	0.45655	0.45694	0.45749	0.45735	0.45762	0.45865	0.45820	0.45809	0.45878	0.45888	0.45990	0.45968	0.45981	0.46049	0.46029
550.00	0.73670	0.70958	0.68716	0.66718	0.65037	0.63582	0.62433	0.61337	0.60458	0.59652	0.58951	0.58188	0.57613	0.56967	0.56339	0.55817	0.55236	0.54712	0.54299	0.53774	0.53424	0.52982	0.52700	0.52477	0.52231	0.51927	0.51693	0.51449	0.51399	0.51089	0.50915	0.50761	0.50487	0.50378	0.50173	0.50085	0.49946	0.49765	0.49674	0.49529	0.49410	0.49244	0.49200	0.49118	0.48950	0.48837	0.48700	0.48651	0.48550	0.48575	0.48438	0.48349	0.48240	0.48154	0.48185	0.47953	0.47666	0.47634	0.47500	0.47470	0.47504	0.47395	0.47403	0.47468	0.47547	0.47514	0.47584	0.47603	0.47593	0.47630	0.47566	0.47622	0.47636	0.47666	0.47670	0.47629	0.47598	0.47680	0.47669	0.47661	0.47643
551.00	0.74691	0.71888	0.69590	0.67683	0.65962	0.64566	0.63475	0.62325	0.61381	0.60702	0.59956	0.59218	0.58562	0.57950	0.57278	0.56787	0.56197	0.55728	0.55310	0.54768	0.54461	0.54062	0.53740	0.53468	0.53178	0.52901	0.52575	0.52403	0.52234	0.51943	0.51776	0.51601	0.51400	0.51279	0.51141	0.50991	0.50804	0.50725	0.50584	0.50470	0.50375	0.50156	0.50134	0.50078	0.49999	0.49868	0.49697	0.49703	0.49577	0.49462	0.49422	0.49340	0.49295	0.49144	0.49193	0.49135	0.48921	0.48922	0.48749	0.48733	0.48694	0.48706	0.48637	0.48597	0.48652	0.48611	0.48622	0.48571	0.48553	0.48572	0.48538	0.48639	0.48519	0.48519	0.48531	0.48518	0.48419	0.48425	0.48468	0.48313	0.48330
552.00	0.75367	0.72692	0.70260	0.68237	0.66570	0.65070	0.63923	0.62821	0.61936	0.61165	0.60341	0.59587	0.58884	0.58225	0.57473	0.57036	0.56496	0.56090	0.55577	0.55172	0.54877	0.54437	0.54125	0.53847	0.53409	0.53171	0.52940	0.52605	0.52407	0.52201	0.51959	0.51804	0.51556	0.51453	0.51281	0.51182	0.50967	0.50851	0.50713	0.50613	0.50495	0.50333	0.50309	0.50134	0.50052	0.49989	0.49950	0.49876	0.49757	0.49684	0.49693	0.49616	0.49497	0.49516	0.49412	0.49458	0.49432	0.49329	0.49263	0.49224	0.49195	0.49146	0.49096	0.49028	0.49037	0.48903	0.48924	0.48868	0.48799	0.48778	0.48700	0.48699	0.48618	0.48611	0.48501	0.48497	0.48416	0.48411	0.48361	0.48308	0.48313
553.00	0.75560	0.72697	0.70262	0.68223	0.66446	0.64984	0.63750	0.62692	0.61650	0.60962	0.60082	0.59248	0.58572	0.57913	0.57284	0.56679	0.56158	0.55587	0.55281	0.54804	0.54416	0.54041	0.53742	0.53363	0.53036	0.52635	0.52365	0.52067	0.51818	0.51596	0.51365	0.51188	0.50943	0.50762	0.50599	0.50439	0.50321	0.50198	0.50098	0.49879	0.49816	0.49759	0.49672	0.49559	0.49472	0.49374	0.49367	0.49286	0.49260	0.49080	0.49058	0.49005	0.48994	0.49009	0.48909	0.48940	0.48960	0.48824	0.48876	0.48868	0.48807	0.48798	0.48731	0.48603	0.48521	0.48382	0.48349	0.48277	0.48147	0.48098	0.48063	0.47969	0.47905	0.47879	0.47736	0.47683	0.47664	0.47520	0.47502	0.47427	0.47456
554.00	0.75250	0.72339	0.69875	0.67658	0.65864	0.64330	0.63035	0.61955	0.61000	0.60180	0.59253	0.58409	0.57651	0.56920	0.56221	0.55655	0.55170	0.54699	0.54184	0.53845	0.53381	0.53010	0.52614	0.52165	0.51864	0.51476	0.51176	0.50925	0.50513	0.50311	0.50098	0.49811	0.49704	0.49550	0.49314	0.49099	0.48979	0.48853	0.48781	0.48620	0.48637	0.48429	0.48291	0.48207	0.48134	0.47998	0.48036	0.48004	0.47939	0.47794	0.47739	0.47704	0.47722	0.47685	0.47630	0.47646	0.47775	0.47734	0.47748	0.47624	0.47581	0.47518	0.47405	0.47355	0.47175	0.47042	0.47055	0.46884	0.46807	0.46727	0.46685	0.46522	0.46537	0.46519	0.46333	0.46256	0.46186	0.46073	0.46027	0.45806	0.45812
555.00	0.74764	0.71811	0.69174	0.66984	0.65108	0.63575	0.62197	0.60955	0.59916	0.59182	0.58190	0.57281	0.56502	0.55804	0.55083	0.54478	0.53984	0.53437	0.52932	0.52574	0.52123	0.51715	0.51382	0.50898	0.50544	0.50151	0.49773	0.49509	0.49205	0.48832	0.48724	0.48423	0.48255	0.48020	0.47803	0.47672	0.47554	0.47334	0.47275	0.47218	0.46997	0.46883	0.46816	0.46623	0.46612	0.46508	0.46527	0.46460	0.46381	0.46308	0.46264	0.46177	0.46173	0.46222	0.46067	0.46143	0.46277	0.46279	0.46333	0.46187	0.46128	0.46090	0.45934	0.45820	0.45659	0.45623	0.45550	0.45390	0.45308	0.45094	0.45023	0.44915	0.44875	0.44750	0.44681	0.44605	0.44495	0.44403	0.44321	0.44221	0.44132
556.00	0.74154	0.70873	0.68262	0.66016	0.64064	0.62400	0.60959	0.59781	0.58805	0.57789	0.56916	0.55984	0.55128	0.54311	0.53637	0.53014	0.52433	0.51956	0.51431	0.51003	0.50532	0.50132	0.49795	0.49320	0.48921	0.48550	0.48106	0.47809	0.47549	0.47246	0.47015	0.46799	0.46558	0.46375	0.46159	0.45902	0.45794	0.45650	0.45435	0.45381	0.45210	0.45138	0.44962	0.44937	0.44806	0.44680	0.44785	0.44703	0.44673	0.44481	0.44384	0.44425	0.44331	0.44313	0.44208	0.44237	0.44492	0.44418	0.44417	0.44399	0.44272	0.44208	0.44153	0.43962	0.43839	0.43718	0.43562	0.43512	0.43430	0.43276	0.43218	0.43082	0.43045	0.42900	0.42773	0.42791	0.42617	0.42513	0.42428	0.42397	0.42325
557.00	0.73331	0.70144	0.67338	0.65013	0.63006	0.61340	0.59878	0.58572	0.57561	0.56615	0.55647	0.54687	0.53810	0.53036	0.52297	0.51646	0.51076	0.50539	0.49989	0.49475	0.49051	0.48663	0.48278	0.47858	0.47373	0.47022	0.46626	0.46233	0.45961	0.45698	0.45478	0.45226	0.44944	0.44759	0.44487	0.44275	0.44145	0.44024	0.43873	0.43713	0.43609	0.43537	0.43422	0.43186	0.43148	0.43058	0.42997	0.43025	0.42842	0.42843	0.42730	0.42631	0.42620	0.42567	0.42472	0.42632	0.42727	0.42666	0.42687	0.42544	0.42484	0.42419	0.42338	0.42206	0.42075	0.41923	0.41839	0.41732	0.41624	0.41542	0.41477	0.41335	0.41264	0.41187	0.41097	0.41097	0.40906	0.40886	0.40831	0.40747	0.40574
558.00	0.72866	0.69490	0.66673	0.64267	0.62178	0.60422	0.59056	0.57724	0.56614	0.55779	0.54722	0.53714	0.52878	0.52075	0.51401	0.50673	0.50051	0.49371	0.48939	0.48488	0.48014	0.47601	0.47177	0.46700	0.46330	0.45997	0.45531	0.45201	0.44930	0.44660	0.44296	0.44209	0.43915	0.43691	0.43483	0.43243	0.43106	0.42963	0.42741	0.42662	0.42532	0.42369	0.42302	0.42100	0.42036	0.41955	0.41819	0.41827	0.41725	0.41567	0.41518	0.41417	0.41379	0.41285	0.41304	0.41291	0.41366	0.41326	0.41274	0.41244	0.41042	0.41020	0.40984	0.40809	0.40793	0.40617	0.40557	0.40446	0.40381	0.40333	0.40247	0.40142	0.40142	0.40114	0.39966	0.39894	0.39911	0.39788	0.39806	0.39674	0.39603
559.00	0.72418	0.69203	0.66300	0.63920	0.61859	0.60069	0.58583	0.57261	0.56173	0.55244	0.54287	0.53305	0.52448	0.51623	0.50906	0.50227	0.49549	0.48974	0.48454	0.47925	0.47416	0.46997	0.46648	0.46180	0.45828	0.45451	0.45075	0.44719	0.44401	0.44186	0.43966	0.43755	0.43569	0.43232	0.43054	0.42864	0.42710	0.42477	0.42348	0.42225	0.42058	0.41901	0.41815	0.41687	0.41562	0.41384	0.41375	0.41257	0.41088	0.41028	0.40982	0.40894	0.40771	0.40719	0.40678	0.40570	0.40531	0.40522	0.40453	0.40337	0.40283	0.40284	0.40175	0.40115	0.40064	0.40037	0.39928	0.39913	0.39742	0.39715	0.39773	0.39694	0.39624	0.39608	0.39555	0.39576	0.39560	0.39520	0.39473	0.39507	0.39430
560.00	0.72588	0.69260	0.66445	0.64039	0.61974	0.60272	0.58739	0.57533	0.56445	0.55478	0.54480	0.53634	0.52817	0.52031	0.51288	0.50505	0.49891	0.49292	0.48689	0.48158	0.47637	0.47270	0.46855	0.46491	0.46125	0.45842	0.45522	0.45286	0.44923	0.44696	0.44454	0.44177	0.43968	0.43726	0.43594	0.43497	0.43161	0.43060	0.42815	0.42670	0.42595	0.42401	0.42312	0.42160	0.42000	0.41902	0.41764	0.41658	0.41505	0.41478	0.41451	0.41241	0.41167	0.41123	0.41019	0.40861	0.40697	0.40669	0.40554	0.40489	0.40370	0.40328	0.40327	0.40302	0.40253	0.40254	0.40272	0.40294	0.40273	0.40236	0.40256	0.40222	0.40179	0.40206	0.40262	0.40237	0.40194	0.40255	0.40313	0.40222	0.40242
561.00	0.73105	0.69884	0.67145	0.64707	0.62745	0.61105	0.59713	0.58450	0.57283	0.56326	0.55479	0.54664	0.53862	0.53085	0.52385	0.51650	0.50961	0.50330	0.49778	0.49212	0.48783	0.48388	0.47970	0.47661	0.47400	0.47149	0.46772	0.46460	0.46320	0.46038	0.45822	0.45661	0.45461	0.45159	0.44994	0.44865	0.44658	0.44507	0.44322	0.44231	0.44058	0.43855	0.43805	0.43746	0.43460	0.43374	0.43144	0.42987	0.42953	0.42894	0.42745	0.42694	0.42581	0.42467	0.42398	0.42188	0.41931	0.41793	0.41693	0.41604	0.41607	0.41553	0.41437	0.41490	0.41573	0.41718	0.41698	0.41785	0.41747	0.41742	0.41801	0.41854	0.41769	0.41802	0.41896	0.41845	0.41965	0.42045	0.42097	0.42103	0.42165
562.00	0.74242	0.71143	0.68394	0.66058	0.64060	0.62530	0.61101	0.59911	0.58845	0.57958	0.57268	0.56349	0.55583	0.54945	0.54136	0.53508	0.52842	0.52230	0.51644	0.51122	0.50735	0.50296	0.49867	0.49671	0.49317	0.49149	0.48874	0.48599	0.48495	0.48247	0.47988	0.47816	0.47648	0.47455	0.47203	0.47111	0.46866	0.46812	0.46592	0.46567	0.46316	0.46093	0.46096	0.45914	0.45760	0.45612	0.45416	0.45303	0.45260	0.45182	0.45150	0.44986	0.44773	0.44797	0.44664	0.44447	0.44003	0.43933	0.43831	0.43735	0.43758	0.43708	0.43687	0.43762	0.43823	0.43902	0.44035	0.44020	0.44066	0.44181	0.44177	0.44284	0.44221	0.44291	0.44341	0.44353	0.44421	0.44520	0.44522	0.44608	0.44604
563.00	0.75646	0.72522	0.69833	0.67612	0.65695	0.64226	0.62837	0.61656	0.60581	0.59799	0.59088	0.58294	0.57480	0.56857	0.56155	0.55543	0.54855	0.54279	0.53803	0.53246	0.52957	0.52597	0.52159	0.51893	0.51652	0.51366	0.51158	0.50904	0.50730	0.50529	0.50323	0.50144	0.49861	0.49826	0.49607	0.49417	0.49292	0.49109	0.48991	0.48909	0.48760	0.48598	0.48399	0.48429	0.48212	0.48157	0.47885	0.47778	0.47771	0.47650	0.47550	0.47429	0.47342	0.47310	0.47205	0.46963	0.46559	0.46521	0.46385	0.46277	0.46243	0.46299	0.46220	0.46341	0.46437	0.46409	0.46537	0.46645	0.46643	0.46780	0.46827	0.46732	0.46819	0.46858	0.46951	0.46856	0.47081	0.47023	0.47143	0.47191	0.47155
564.00	0.77098	0.74059	0.71508	0.69260	0.67395	0.65951	0.64579	0.63469	0.62553	0.61707	0.60977	0.60203	0.59444	0.58835	0.58175	0.57557	0.56878	0.56373	0.55829	0.55348	0.55012	0.54674	0.54213	0.54015	0.53801	0.53538	0.53270	0.53058	0.52971	0.52601	0.52400	0.52229	0.52044	0.51881	0.51740	0.51622	0.51420	0.51230	0.51155	0.51089	0.50910	0.50765	0.50676	0.50594	0.50471	0.50354	0.50232	0.50086	0.50015	0.49849	0.49868	0.49714	0.49661	0.49566	0.49523	0.49340	0.49006	0.48895	0.48866	0.48705	0.48746	0.48764	0.48720	0.48777	0.48824	0.48884	0.49015	0.48943	0.49019	0.49019	0.49065	0.49123	0.49102	0.49191	0.49121	0.49093	0.49227	0.49270	0.49253	0.49344	0.49356
565.00	0.78296	0.75370	0.72790	0.70648	0.68817	0.67295	0.65991	0.64891	0.63904	0.63096	0.62349	0.61574	0.60950	0.60193	0.59548	0.58916	0.58427	0.57921	0.57367	0.56829	0.56498	0.56147	0.55754	0.55469	0.55255	0.55044	0.54729	0.54484	0.54301	0.54054	0.53872	0.53688	0.53545	0.53374	0.53240	0.52990	0.52935	0.52683	0.52558	0.52517	0.52337	0.52225	0.52218	0.52068	0.51964	0.51775	0.51695	0.51628	0.51553	0.51448	0.51406	0.51238	0.51321	0.51222	0.51135	0.51030	0.50843	0.50754	0.50597	0.50478	0.50515	0.50548	0.50484	0.50521	0.50473	0.50553	0.50583	0.50573	0.50674	0.50582	0.50598	0.50531	0.50573	0.50641	0.50567	0.50635	0.50553	0.50558	0.50626	0.50523	0.50582
566.00	0.79318	0.76217	0.73686	0.71503	0.69626	0.68117	0.66815	0.65704	0.64701	0.63932	0.63125	0.62341	0.61584	0.61004	0.60286	0.59636	0.59129	0.58566	0.58014	0.57692	0.57271	0.56934	0.56575	0.56277	0.55886	0.55648	0.55385	0.55106	0.54834	0.54589	0.54431	0.54229	0.54105	0.53824	0.53747	0.53604	0.53466	0.53376	0.53155	0.53061	0.52903	0.52800	0.52752	0.52603	0.52550	0.52448	0.52374	0.52345	0.52247	0.52131	0.52056	0.52035	0.51953	0.51867	0.51819	0.51708	0.51586	0.51611	0.51504	0.51522	0.51489	0.51401	0.51347	0.51347	0.51303	0.51293	0.51229	0.51252	0.51226	0.51208	0.51189	0.51184	0.51055	0.51054	0.51048	0.50976	0.50915	0.50895	0.50885	0.50875	0.50842
567.00	0.79806	0.76771	0.74175	0.71845	0.70084	0.68535	0.67215	0.66075	0.65049	0.64240	0.63419	0.62528	0.61704	0.61017	0.60427	0.59791	0.59193	0.58703	0.58235	0.57825	0.57359	0.57010	0.56670	0.56277	0.56000	0.55650	0.55237	0.55078	0.54794	0.54536	0.54302	0.54081	0.53935	0.53767	0.53535	0.53387	0.53265	0.53089	0.53005	0.52892	0.52752	0.52589	0.52546	0.52435	0.52376	0.52364	0.52267	0.52136	0.52064	0.52008	0.51899	0.51829	0.51747	0.51772	0.51766	0.51659	0.51711	0.51664	0.51645	0.51575	0.51575	0.51507	0.51481	0.51336	0.51313	0.51265	0.51141	0.51112	0.51059	0.50987	0.50918	0.50930	0.50818	0.50796	0.50699	0.50705	0.50584	0.50503	0.50473	0.50386	0.50289
568.00	0.80095	0.76857	0.74211	0.71903	0.69923	0.68332	0.66946	0.65839	0.64749	0.63874	0.62931	0.62149	0.61280	0.60573	0.59831	0.59127	0.58566	0.58097	0.57524	0.57285	0.56757	0.56388	0.56048	0.55572	0.55248	0.54873	0.54604	0.54257	0.53934	0.53708	0.53594	0.53170	0.52926	0.52792	0.52647	0.52438	0.52324	0.52197	0.52047	0.51918	0.51802	0.51698	0.51630	0.51450	0.51445	0.51357	0.51316	0.51316	0.51163	0.51120	0.50979	0.51033	0.50912	0.50887	0.50836	0.50895	0.50890	0.51015	0.50912	0.50868	0.50844	0.50784	0.50660	0.50581	0.50491	0.50321	0.50281	0.50205	0.50097	0.49942	0.49953	0.49858	0.49794	0.49671	0.49655	0.49518	0.49486	0.49303	0.49330	0.49165	0.49067
569.00	0.79700	0.76334	0.73676	0.71207	0.69297	0.67614	0.66174	0.64903	0.64002	0.63047	0.62027	0.61108	0.60257	0.59418	0.58703	0.58199	0.57498	0.56970	0.56551	0.56146	0.55606	0.55206	0.54715	0.54253	0.53958	0.53554	0.53168	0.52912	0.52563	0.52356	0.51996	0.51766	0.51572	0.51453	0.51195	0.51039	0.50847	0.50712	0.50544	0.50442	0.50318	0.50170	0.50079	0.49998	0.49947	0.49808	0.49793	0.49748	0.49651	0.49586	0.49521	0.49490	0.49353	0.49390	0.49272	0.49429	0.49506	0.49510	0.49471	0.49529	0.49477	0.49384	0.49294	0.49144	0.49042	0.48815	0.48655	0.48633	0.48557	0.48418	0.48360	0.48249	0.48229	0.48008	0.47952	0.47826	0.47775	0.47697	0.47500	0.47384	0.47450
570.00	0.78910	0.75611	0.72772	0.70441	0.68293	0.66513	0.65007	0.63763	0.62666	0.61699	0.60673	0.59742	0.58914	0.58044	0.57311	0.56635	0.56080	0.55602	0.55100	0.54540	0.53974	0.53634	0.53267	0.52782	0.52294	0.51894	0.51567	0.51237	0.50906	0.50593	0.50345	0.50034	0.49895	0.49605	0.49502	0.49303	0.49074	0.48989	0.48814	0.48658	0.48481	0.48388	0.48346	0.48262	0.48145	0.48064	0.48063	0.47949	0.47940	0.47818	0.47728	0.47735	0.47625	0.47641	0.47621	0.47593	0.47758	0.47834	0.47729	0.47775	0.47712	0.47542	0.47501	0.47335	0.47266	0.47017	0.46905	0.46785	0.46696	0.46593	0.46450	0.46320	0.46367	0.46133	0.46025	0.45995	0.45922	0.45729	0.45660	0.45531	0.45503
571.00	0.78066	0.74664	0.71756	0.69099	0.67044	0.65222	0.63659	0.62371	0.61297	0.60378	0.59290	0.58203	0.57283	0.56390	0.55714	0.55017	0.54378	0.53888	0.53409	0.52818	0.52306	0.52004	0.51528	0.51053	0.50573	0.50160	0.49818	0.49447	0.49056	0.48783	0.48496	0.48279	0.48007	0.47746	0.47591	0.47405	0.47283	0.47087	0.46950	0.46819	0.46629	0.46547	0.46418	0.46310	0.46155	0.46097	0.46027	0.46145	0.45972	0.45875	0.45801	0.45739	0.45739	0.45601	0.45581	0.45676	0.45737	0.45857	0.45775	0.45721	0.45696	0.45618	0.45525	0.45280	0.45173	0.44996	0.44904	0.44835	0.44648	0.44579	0.44478	0.44402	0.44233	0.44120	0.44013	0.43983	0.43916	0.43748	0.43629	0.43560	0.43488
572.00	0.77038	0.73467	0.70402	0.67958	0.65664	0.63842	0.62274	0.60976	0.59773	0.58786	0.57760	0.56802	0.55847	0.54936	0.54174	0.53426	0.52852	0.52324	0.51791	0.51189	0.50722	0.50254	0.49842	0.49328	0.48933	0.48503	0.48092	0.47694	0.47399	0.47116	0.46799	0.46595	0.46300	0.46127	0.45907	0.45693	0.45443	0.45311	0.45174	0.45023	0.44882	0.44740	0.44550	0.44490	0.44341	0.44338	0.44270	0.44296	0.44108	0.43995	0.43949	0.43879	0.43837	0.43704	0.43732	0.43841	0.43887	0.43890	0.43824	0.43915	0.43812	0.43662	0.43544	0.43419	0.43240	0.43102	0.43066	0.42925	0.42766	0.42705	0.42612	0.42523	0.42382	0.42319	0.42261	0.42201	0.42075	0.41907	0.41924	0.41809	0.41725
573.00	0.76059	0.72536	0.69505	0.66849	0.64660	0.62774	0.61156	0.59816	0.58689	0.57691	0.56649	0.55640	0.54641	0.53827	0.52999	0.52285	0.51599	0.51051	0.50444	0.49882	0.49468	0.49004	0.48551	0.48191	0.47704	0.47286	0.46865	0.46482	0.46162	0.45922	0.45634	0.45343	0.45180	0.44897	0.44638	0.44450	0.44297	0.44102	0.43949	0.43812	0.43626	0.43509	0.43392	0.43282	0.43130	0.43069	0.43066	0.42964	0.42844	0.42846	0.42740	0.42561	0.42431	0.42413	0.42340	0.42469	0.42514	0.42443	0.42424	0.42339	0.42356	0.42195	0.42164	0.41954	0.41842	0.41777	0.41668	0.41591	0.41482	0.41397	0.41350	0.41260	0.41178	0.41138	0.41025	0.40995	0.41009	0.40844	0.40841	0.40664	0.40674
574.00	0.75151	0.71550	0.68516	0.65954	0.63755	0.61930	0.60324	0.59055	0.57877	0.56842	0.55772	0.54844	0.53875	0.53065	0.52278	0.51526	0.50846	0.50230	0.49711	0.49116	0.48615	0.48246	0.47798	0.47348	0.46920	0.46544	0.46180	0.45888	0.45610	0.45266	0.44956	0.44758	0.44493	0.44308	0.44053	0.43934	0.43662	0.43528	0.43373	0.43219	0.43066	0.42900	0.42790	0.42638	0.42503	0.42418	0.42307	0.42251	0.42138	0.42038	0.41943	0.41863	0.41784	0.41683	0.41678	0.41574	0.41598	0.41496	0.41414	0.41347	0.41336	0.41159	0.41168	0.41127	0.40943	0.40920	0.40825	0.40864	0.40768	0.40755	0.40712	0.40720	0.40586	0.40536	0.40553	0.40476	0.40424	0.40401	0.40454	0.40381	0.40375
575.00	0.74709	0.71143	0.68138	0.65566	0.63432	0.61717	0.60084	0.58765	0.57695	0.56646	0.55741	0.54806	0.53887	0.53132	0.52363	0.51579	0.50992	0.50354	0.49746	0.49235	0.48733	0.48292	0.47861	0.47445	0.47107	0.46820	0.46504	0.46168	0.45938	0.45636	0.45362	0.45134	0.44944	0.44782	0.44519	0.44342	0.44154	0.43930	0.43824	0.43594	0.43461	0.43347	0.43224	0.43104	0.43030	0.42856	0.42757	0.42582	0.42489	0.42425	0.42337	0.42257	0.42123	0.42127	0.41922	0.41862	0.41718	0.41510	0.41489	0.41453	0.41331	0.41363	0.41356	0.41278	0.41202	0.41233	0.41237	0.41216	0.41222	0.41208	0.41176	0.41174	0.41145	0.41234	0.41191	0.41209	0.41189	0.41226	0.41258	0.41267	0.41270
576.00	0.74596	0.71244	0.68360	0.65871	0.63802	0.62060	0.60608	0.59333	0.58310	0.57270	0.56474	0.55615	0.54792	0.54015	0.53280	0.52590	0.51909	0.51302	0.50690	0.50120	0.49674	0.49342	0.48870	0.48584	0.48407	0.48068	0.47789	0.47537	0.47249	0.47038	0.46788	0.46577	0.46390	0.46239	0.45995	0.45833	0.45679	0.45454	0.45354	0.45240	0.45075	0.44942	0.44755	0.44681	0.44561	0.44378	0.44205	0.44099	0.44001	0.43964	0.43795	0.43697	0.43642	0.43526	0.43436	0.43152	0.42970	0.42813	0.42794	0.42673	0.42591	0.42555	0.42535	0.42542	0.42655	0.42690	0.42751	0.42814	0.42812	0.42841	0.42868	0.42880	0.42874	0.42905	0.42963	0.43111	0.43077	0.43165	0.43239	0.43280	0.43313
577.00	0.75127	0.71828	0.69062	0.66723	0.64814	0.63254	0.61763	0.60606	0.59539	0.58720	0.58009	0.57127	0.56454	0.55761	0.55005	0.54411	0.53706	0.53159	0.52564	0.52056	0.51670	0.51254	0.50889	0.50639	0.50378	0.50208	0.49973	0.49760	0.49502	0.49331	0.49126	0.48958	0.48732	0.48591	0.48413	0.48293	0.48061	0.47947	0.47821	0.47709	0.47498	0.47323	0.47239	0.47156	0.47019	0.46892	0.46646	0.46537	0.46463	0.46395	0.46347	0.46218	0.46032	0.46102	0.45922	0.45612	0.45306	0.45059	0.45060	0.45017	0.44930	0.44924	0.44869	0.45025	0.45206	0.45266	0.45284	0.45339	0.45345	0.45526	0.45561	0.45558	0.45598	0.45697	0.45834	0.45874	0.45891	0.45939	0.46111	0.46113	0.46181
578.00	0.75974	0.72850	0.70256	0.68075	0.66253	0.64721	0.63405	0.62388	0.61325	0.60454	0.59849	0.59173	0.58380	0.57842	0.57119	0.56561	0.55962	0.55405	0.54795	0.54380	0.53912	0.53625	0.53317	0.53039	0.52870	0.52670	0.52503	0.52271	0.52060	0.51936	0.51738	0.51559	0.51460	0.51256	0.51151	0.50962	0.50802	0.50671	0.50581	0.50447	0.50298	0.50193	0.50119	0.49932	0.49750	0.49702	0.49477	0.49291	0.49325	0.49290	0.49215	0.48948	0.48969	0.48886	0.48769	0.48471	0.48197	0.47896	0.47963	0.47920	0.47763	0.47721	0.47738	0.47891	0.48036	0.48177	0.48217	0.48286	0.48334	0.48437	0.48544	0.48490	0.48574	0.48658	0.48697	0.48787	0.48856	0.48911	0.49061	0.49160	0.49155
579.00	0.77281	0.74238	0.71700	0.69599	0.68002	0.66510	0.65333	0.64222	0.63318	0.62560	0.61933	0.61182	0.60666	0.59910	0.59477	0.58803	0.58365	0.57742	0.57192	0.56808	0.56501	0.56146	0.55739	0.55568	0.55361	0.55228	0.54998	0.54873	0.54643	0.54459	0.54280	0.54134	0.53961	0.53841	0.53709	0.53594	0.53391	0.53301	0.53229	0.53076	0.52987	0.52879	0.52733	0.52648	0.52484	0.52355	0.52221	0.52092	0.52082	0.52023	0.51832	0.51847	0.51730	0.51665	0.51525	0.51350	0.50979	0.50819	0.50877	0.50883	0.50667	0.50739	0.50751	0.50824	0.50909	0.51055	0.51043	0.51142	0.51228	0.51269	0.51270	0.51311	0.51361	0.51393	0.51495	0.51434	0.51555	0.51659	0.51738	0.51727	0.51775
580.00	0.78366	0.75497	0.73076	0.71019	0.69503	0.68044	0.66857	0.65949	0.65007	0.64227	0.63638	0.62930	0.62370	0.61797	0.61144	0.60582	0.60084	0.59622	0.59094	0.58742	0.58316	0.58018	0.57738	0.57480	0.57243	0.57067	0.56858	0.56620	0.56444	0.56371	0.56130	0.55966	0.55852	0.55736	0.55558	0.55423	0.55193	0.55124	0.54999	0.54980	0.54870	0.54661	0.54626	0.54539	0.54391	0.54275	0.54211	0.54105	0.53999	0.53993	0.53855	0.53854	0.53738	0.53739	0.53630	0.53440	0.53299	0.53090	0.53145	0.53015	0.52959	0.53003	0.52958	0.53043	0.53040	0.53094	0.53176	0.53203	0.53141	0.53147	0.53207	0.53240	0.53259	0.53214	0.53299	0.53309	0.53324	0.53341	0.53339	0.53440	0.53347
581.00	0.79369	0.76553	0.74152	0.72234	0.70513	0.69205	0.68023	0.66969	0.66136	0.65383	0.64774	0.64049	0.63397	0.62794	0.62224	0.61718	0.61209	0.60737	0.60230	0.59905	0.59491	0.59126	0.58844	0.58671	0.58352	0.58071	0.57859	0.57664	0.57457	0.57198	0.57007	0.56946	0.56690	0.56597	0.56451	0.56262	0.56115	0.56050	0.55930	0.55763	0.55720	0.55581	0.55496	0.55377	0.55343	0.55283	0.55214	0.55060	0.55003	0.54951	0.54911	0.54857	0.54793	0.54724	0.54656	0.54611	0.54537	0.54343	0.54391	0.54336	0.54247	0.54262	0.54215	0.54220	0.54196	0.54226	0.54191	0.54220	0.54157	0.54209	0.54132	0.54134	0.54151	0.54133	0.54075	0.54084	0.54064	0.53958	0.53990	0.53962	0.53972
582.00	0.79871	0.76985	0.74613	0.72709	0.71005	0.69587	0.68463	0.67398	0.66549	0.65739	0.65092	0.64262	0.63613	0.63096	0.62438	0.61882	0.61327	0.60815	0.60448	0.60125	0.59687	0.59397	0.59045	0.58746	0.58406	0.58185	0.57876	0.57676	0.57351	0.57175	0.57035	0.56810	0.56655	0.56455	0.56388	0.56132	0.56080	0.55838	0.55817	0.55733	0.55553	0.55470	0.55444	0.55322	0.55258	0.55151	0.55154	0.55139	0.54984	0.54902	0.54890	0.54831	0.54712	0.54764	0.54649	0.54709	0.54691	0.54673	0.54596	0.54470	0.54561	0.54511	0.54466	0.54414	0.54306	0.54239	0.54256	0.54155	0.54141	0.54038	0.54062	0.53964	0.53918	0.53854	0.53825	0.53766	0.53692	0.53656	0.53579	0.53516	0.53487
583.00	0.79749	0.76877	0.74581	0.72535	0.70749	0.69347	0.68092	0.67067	0.66115	0.65415	0.64558	0.63752	0.63130	0.62453	0.61793	0.61260	0.60764	0.60284	0.59867	0.59443	0.59038	0.58740	0.58389	0.58013	0.57741	0.57362	0.57065	0.56729	0.56531	0.56309	0.56135	0.55909	0.55727	0.55563	0.55273	0.55208	0.55089	0.54957	0.54849	0.54677	0.54614	0.54531	0.54395	0.54340	0.54265	0.54226	0.54160	0.54137	0.54083	0.53951	0.53921	0.53829	0.53853	0.53823	0.53778	0.53800	0.53901	0.54006	0.53869	0.53842	0.53714	0.53766	0.53675	0.53606	0.53492	0.53421	0.53374	0.53198	0.53139	0.53048	0.52960	0.52836	0.52859	0.52767	0.52670	0.52584	0.52509	0.52370	0.52373	0.52205	0.52202
584.00	0.79259	0.76382	0.73906	0.71809	0.70008	0.68472	0.67275	0.66162	0.65273	0.64395	0.63518	0.62770	0.61967	0.61341	0.60602	0.60097	0.59502	0.59067	0.58647	0.58273	0.57815	0.57494	0.57123	0.56752	0.56363	0.56010	0.55700	0.55374	0.55125	0.54877	0.54647	0.54457	0.54203	0.54016	0.53923	0.53621	0.53618	0.53459	0.53309	0.53198	0.53093	0.53032	0.52938	0.52820	0.52753	0.52723	0.52707	0.52698	0.52603	0.52544	0.52459	0.52309	0.52331	0.52358	0.52354	0.52405	0.52541	0.52552	0.52527	0.52467	0.52442	0.52362	0.52345	0.52198	0.52001	0.51915	0.51827	0.51655	0.51570	0.51526	0.51377	0.51306	0.51250	0.51135	0.51027	0.50929	0.50810	0.50733	0.50622	0.50472	0.50408
585.00	0.78265	0.75235	0.72623	0.70474	0.68695	0.67100	0.65796	0.64641	0.63661	0.62849	0.61932	0.61055	0.60363	0.59575	0.58951	0.58332	0.57823	0.57336	0.56948	0.56498	0.56074	0.55768	0.55332	0.54967	0.54546	0.54042	0.53734	0.53422	0.53261	0.52965	0.52729	0.52486	0.52296	0.52051	0.51856	0.51748	0.51569	0.51439	0.51309	0.51180	0.51080	0.50992	0.50893	0.50800	0.50763	0.50696	0.50682	0.50634	0.50594	0.50411	0.50374	0.50347	0.50339	0.50262	0.50303	0.50472	0.50554	0.50670	0.50510	0.50487	0.50573	0.50438	0.50335	0.50157	0.50003	0.49942	0.49704	0.49555	0.49503	0.49374	0.49278	0.49209	0.49097	0.49017	0.48859	0.48749	0.48653	0.48528	0.48408	0.48274	0.48199
586.00	0.76619	0.73610	0.70886	0.68735	0.66769	0.65231	0.63880	0.62768	0.61709	0.60883	0.60006	0.59059	0.58219	0.57469	0.56873	0.56194	0.55619	0.55153	0.54820	0.54378	0.53935	0.53624	0.53065	0.52746	0.52280	0.51846	0.51523	0.51236	0.50920	0.50627	0.50465	0.50241	0.49992	0.49747	0.49573	0.49461	0.49263	0.49105	0.49061	0.48882	0.48740	0.48671	0.48571	0.48501	0.48411	0.48304	0.48372	0.48351	0.48214	0.48167	0.48057	0.48034	0.48047	0.47976	0.47957	0.48096	0.48250	0.48347	0.48214	0.48170	0.48230	0.48202	0.48054	0.47878	0.47682	0.47583	0.47332	0.47239	0.47092	0.47028	0.46932	0.46809	0.46693	0.46642	0.46543	0.46417	0.46298	0.46195	0.46045	0.45929	0.45860
587.00	0.74955	0.71837	0.69107	0.66942	0.64943	0.63414	0.61988	0.60826	0.59859	0.59003	0.58034	0.57049	0.56297	0.55547	0.54842	0.54217	0.53705	0.53312	0.52754	0.52352	0.51960	0.51604	0.51159	0.50788	0.50332	0.49966	0.49566	0.49260	0.48968	0.48705	0.48456	0.48227	0.47983	0.47763	0.47603	0.47494	0.47361	0.47136	0.47042	0.46885	0.46793	0.46715	0.46567	0.46551	0.46480	0.46389	0.46363	0.46364	0.46258	0.46078	0.46065	0.46111	0.46040	0.45886	0.45955	0.46119	0.46214	0.46265	0.46148	0.46183	0.46137	0.46019	0.45894	0.45788	0.45616	0.45483	0.45269	0.45164	0.45032	0.44877	0.44899	0.44810	0.44733	0.44583	0.44490	0.44416	0.44267	0.44183	0.44064	0.43942	0.43958
588.00	0.73004	0.69929	0.67186	0.64828	0.62942	0.61406	0.60129	0.58829	0.57878	0.56919	0.56099	0.55175	0.54357	0.53610	0.52901	0.52374	0.51806	0.51353	0.50904	0.50433	0.49929	0.49642	0.49196	0.48848	0.48460	0.48031	0.47654	0.47390	0.47135	0.46833	0.46658	0.46376	0.46200	0.45944	0.45767	0.45642	0.45462	0.45323	0.45234	0.45055	0.44899	0.44885	0.44734	0.44706	0.44599	0.44469	0.44509	0.44458	0.44285	0.44202	0.44208	0.44179	0.44089	0.44085	0.44020	0.44092	0.44139	0.44236	0.44108	0.44155	0.44141	0.43998	0.43963	0.43790	0.43633	0.43542	0.43311	0.43232	0.43196	0.43106	0.43057	0.42944	0.42875	0.42828	0.42631	0.42630	0.42500	0.42459	0.42304	0.42319	0.42226
589.00	0.70970	0.67988	0.65342	0.63159	0.61178	0.59619	0.58326	0.57199	0.56170	0.55343	0.54454	0.53534	0.52838	0.52113	0.51437	0.50823	0.50260	0.49716	0.49296	0.48948	0.48461	0.48085	0.47748	0.47324	0.47004	0.46640	0.46318	0.46049	0.45852	0.45532	0.45338	0.45147	0.44958	0.44683	0.44599	0.44385	0.44188	0.44073	0.44007	0.43770	0.43658	0.43618	0.43505	0.43398	0.43309	0.43258	0.43203	0.43155	0.43033	0.42963	0.42849	0.42829	0.42737	0.42705	0.42654	0.42733	0.42665	0.42705	0.42639	0.42626	0.42591	0.42460	0.42383	0.42281	0.42213	0.42139	0.42109	0.41979	0.41885	0.41860	0.41794	0.41761	0.41697	0.41649	0.41568	0.41570	0.41453	0.41457	0.41409	0.41371	0.41312
590.00	0.69396	0.66397	0.63953	0.61813	0.59928	0.58465	0.57153	0.56034	0.55111	0.54246	0.53529	0.52742	0.51997	0.51288	0.50719	0.50132	0.49555	0.49140	0.48556	0.48170	0.47858	0.47462	0.47110	0.46810	0.46511	0.46213	0.45976	0.45697	0.45418	0.45230	0.45028	0.44739	0.44601	0.44423	0.44311	0.44143	0.44055	0.43847	0.43752	0.43595	0.43474	0.43361	0.43296	0.43178	0.43082	0.43028	0.42909	0.42886	0.42698	0.42674	0.42587	0.42523	0.42488	0.42422	0.42336	0.42325	0.42280	0.42184	0.42102	0.42046	0.42013	0.41980	0.41923	0.41848	0.41780	0.41844	0.41770	0.41691	0.41680	0.41644	0.41553	0.41616	0.41579	0.41588	0.41551	0.41557	0.41552	0.41598	0.41605	0.41607	0.41592
591.00	0.68195	0.65370	0.62942	0.61017	0.59267	0.57899	0.56692	0.55668	0.54764	0.54013	0.53340	0.52596	0.52036	0.51394	0.50900	0.50276	0.49802	0.49332	0.48874	0.48468	0.48116	0.47725	0.47409	0.47188	0.46901	0.46730	0.46502	0.46336	0.46156	0.45897	0.45749	0.45547	0.45466	0.45314	0.45134	0.45035	0.44839	0.44788	0.44663	0.44492	0.44396	0.44300	0.44212	0.44135	0.44000	0.43898	0.43755	0.43643	0.43553	0.43446	0.43453	0.43408	0.43325	0.43228	0.43156	0.42975	0.42839	0.42689	0.42684	0.42668	0.42529	0.42571	0.42470	0.42468	0.42454	0.42595	0.42564	0.42613	0.42593	0.42662	0.42736	0.42708	0.42759	0.42782	0.42769	0.42828	0.42838	0.42970	0.43019	0.43046	0.43048
592.00	0.67476	0.64876	0.62735	0.60878	0.59409	0.58173	0.57059	0.56203	0.55452	0.54759	0.54143	0.53525	0.53022	0.52550	0.51932	0.51516	0.51065	0.50563	0.50218	0.49774	0.49401	0.49138	0.48902	0.48779	0.48525	0.48364	0.48258	0.48105	0.47972	0.47815	0.47673	0.47530	0.47433	0.47323	0.47223	0.47130	0.47009	0.46825	0.46761	0.46567	0.46526	0.46347	0.46353	0.46260	0.46172	0.46094	0.45773	0.45753	0.45666	0.45598	0.45591	0.45554	0.45403	0.45358	0.45204	0.45006	0.44722	0.44486	0.44500	0.44387	0.44358	0.44298	0.44404	0.44395	0.44534	0.44653	0.44731	0.44807	0.44872	0.44969	0.45046	0.45053	0.45114	0.45136	0.45234	0.45336	0.45426	0.45507	0.45587	0.45705	0.45708
593.00	0.67688	0.65360	0.63329	0.61723	0.60525	0.59328	0.58327	0.57599	0.56915	0.56338	0.55839	0.55375	0.54879	0.54469	0.54091	0.53553	0.53223	0.52726	0.52287	0.51949	0.51747	0.51396	0.51283	0.51145	0.51009	0.50952	0.50828	0.50689	0.50606	0.50450	0.50404	0.50207	0.50278	0.50122	0.50007	0.49932	0.49827	0.49684	0.49558	0.49464	0.49458	0.49342	0.49193	0.49138	0.49017	0.48991	0.48714	0.48560	0.48596	0.48568	0.48473	0.48342	0.48335	0.48261	0.48099	0.47816	0.47439	0.47312	0.47302	0.47275	0.47099	0.47149	0.47178	0.47354	0.47442	0.47623	0.47714	0.47889	0.47900	0.48048	0.48108	0.48145	0.48227	0.48257	0.48481	0.48480	0.48590	0.48663	0.48835	0.48978	0.48997
594.00	0.68617	0.66436	0.64730	0.63327	0.62248	0.61195	0.60365	0.59727	0.59111	0.58544	0.58179	0.57808	0.57428	0.57093	0.56651	0.56249	0.55877	0.55468	0.55005	0.54787	0.54538	0.54357	0.54146	0.54105	0.53965	0.53950	0.53840	0.53755	0.53703	0.53532	0.53489	0.53407	0.53391	0.53262	0.53135	0.53105	0.53005	0.52856	0.52781	0.52731	0.52640	0.52581	0.52446	0.52385	0.52309	0.52214	0.52068	0.51901	0.51888	0.51909	0.51832	0.51691	0.51632	0.51528	0.51481	0.51140	0.50899	0.50690	0.50728	0.50627	0.50463	0.50498	0.50558	0.50788	0.50814	0.51021	0.51131	0.51181	0.51302	0.51442	0.51495	0.51619	0.51533	0.51724	0.51786	0.51838	0.52020	0.52078	0.52155	0.52267	0.52408
595.00	0.69849	0.67971	0.66427	0.65144	0.64153	0.63279	0.62502	0.61901	0.61374	0.60841	0.60607	0.60194	0.59855	0.59602	0.59143	0.58748	0.58478	0.58083	0.57751	0.57452	0.57302	0.57052	0.56873	0.56776	0.56675	0.56606	0.56587	0.56440	0.56409	0.56370	0.56172	0.56063	0.56044	0.55935	0.55869	0.55794	0.55667	0.55675	0.55550	0.55488	0.55431	0.55288	0.55202	0.55186	0.55067	0.55083	0.54878	0.54796	0.54728	0.54741	0.54646	0.54624	0.54463	0.54444	0.54330	0.54104	0.53860	0.53721	0.53799	0.53668	0.53528	0.53611	0.53643	0.53760	0.53884	0.54041	0.54110	0.54181	0.54276	0.54259	0.54341	0.54437	0.54429	0.54518	0.54552	0.54637	0.54690	0.54743	0.54875	0.54920	0.54947
596.00	0.71195	0.69414	0.68020	0.66909	0.65859	0.65083	0.64400	0.63741	0.63274	0.62786	0.62444	0.62090	0.61654	0.61405	0.61099	0.60710	0.60364	0.60050	0.59708	0.59442	0.59281	0.59065	0.58915	0.58808	0.58643	0.58583	0.58414	0.58348	0.58200	0.58200	0.57989	0.58017	0.57887	0.57753	0.57714	0.57622	0.57590	0.57495	0.57411	0.57383	0.57252	0.57191	0.57141	0.56984	0.56997	0.56941	0.56801	0.56709	0.56690	0.56727	0.56583	0.56598	0.56535	0.56467	0.56407	0.56199	0.56009	0.56009	0.55969	0.55930	0.55867	0.55819	0.55841	0.55974	0.56059	0.56099	0.56100	0.56094	0.56204	0.56193	0.56287	0.56281	0.56284	0.56350	0.56364	0.56402	0.56463	0.56348	0.56445	0.56471	0.56459
597.00	0.72419	0.70822	0.69446	0.68285	0.67278	0.66398	0.65715	0.65048	0.64604	0.64169	0.63694	0.63318	0.62976	0.62619	0.62205	0.61898	0.61615	0.61222	0.60987	0.60642	0.60498	0.60256	0.60045	0.59927	0.59766	0.59627	0.59457	0.59327	0.59183	0.59127	0.59021	0.58839	0.58722	0.58648	0.58586	0.58530	0.58396	0.58359	0.58259	0.58178	0.58165	0.58096	0.58050	0.57925	0.57846	0.57832	0.57740	0.57665	0.57620	0.57678	0.57548	0.57552	0.57493	0.57536	0.57448	0.57394	0.57326	0.57283	0.57269	0.57268	0.57172	0.57218	0.57182	0.57162	0.57167	0.57174	0.57168	0.57127	0.57184	0.57157	0.57177	0.57180	0.57089	0.57132	0.57126	0.57119	0.57019	0.57043	0.57084	0.57067	0.56913
598.00	0.73340	0.71620	0.70093	0.68882	0.67905	0.67001	0.66335	0.65605	0.65118	0.64613	0.64230	0.63670	0.63274	0.62892	0.62499	0.62132	0.61780	0.61453	0.61300	0.60943	0.60757	0.60482	0.60235	0.60084	0.59872	0.59697	0.59527	0.59350	0.59202	0.59077	0.58876	0.58792	0.58689	0.58585	0.58441	0.58354	0.58239	0.58218	0.58178	0.58039	0.57993	0.57935	0.57899	0.57826	0.57744	0.57796	0.57711	0.57706	0.57611	0.57584	0.57539	0.57512	0.57454	0.57449	0.57492	0.57517	0.57521	0.57481	0.57466	0.57453	0.57450	0.57369	0.57272	0.57375	0.57230	0.57119	0.57089	0.57098	0.57115	0.57030	0.56907	0.56982	0.57007	0.56839	0.56770	0.56870	0.56781	0.56636	0.56570	0.56563	0.56462
599.00	0.73417	0.71654	0.70114	0.68883	0.67730	0.66792	0.65939	0.65278	0.64710	0.64237	0.63602	0.63272	0.62724	0.62190	0.61818	0.61457	0.61158	0.60867	0.60563	0.60240	0.60100	0.59840	0.59625	0.59348	0.59045	0.58830	0.58675	0.58410	0.58262	0.58118	0.58001	0.57873	0.57724	0.57532	0.57444	0.57292	0.57278	0.57200	0.57152	0.57140	0.56943	0.56952	0.56832	0.56815	0.56775	0.56767	0.56766	0.56767	0.56659	0.56656	0.56575	0.56543	0.56517	0.56528	0.56562	0.56594	0.56700	0.56790	0.56719	0.56674	0.56779	0.56676	0.56604	0.56498	0.56369	0.56347	0.56159	0.56158	0.56008	0.56004	0.55894	0.55837	0.55800	0.55717	0.55671	0.55508	0.55547	0.55375	0.55361	0.55277	0.55166
600.00	0.72885	0.71032	0.69358	0.68050	0.66761	0.65735	0.64930	0.64237	0.63602	0.63017	0.62462	0.61904	0.61410	0.60933	0.60426	0.60119	0.59690	0.59506	0.59194	0.58907	0.58609	0.58420	0.58140	0.57845	0.57581	0.57327	0.57036	0.56852	0.56627	0.56478	0.56351	0.56178	0.56051	0.55926	0.55718	0.55632	0.55652	0.55544	0.55386	0.55367	0.55291	0.55224	0.55074	0.55108	0.54987	0.54996	0.55093	0.55123	0.55062	0.54989	0.54879	0.54902	0.54844	0.54824	0.54806	0.55068	0.55143	0.55246	0.55115	0.55201	0.55222	0.55147	0.55107	0.54884	0.54823	0.54687	0.54573	0.54452	0.54352	0.54286	0.54146	0.54054	0.54061	0.53926	0.53791	0.53739	0.53586	0.53562	0.53442	0.53339	0.53231
