,d2o 165 By Administrator Date Wednesday. December 15 2021,
Time,15:38:19,
Wavenumbers [1/cm],Transmittance %,
7000.000,5.11026,
6999.000,5.13624,
6998.000,5.16329,
6997.000,5.1918,
6996.000,5.22371,
6995.000,5.25814,
6994.000,5.29095,
6993.000,5.31888,
6992.000,5.34246,
6991.000,5.36456,
6990.000,5.38756,
6989.000,5.41217,
6988.000,5.43737,
6987.000,5.46131,
6986.000,5.48379,
6985.000,5.50759,
6984.000,5.53573,
6983.000,5.56753,
6982.000,5.6001,
6981.000,5.63296,
6980.000,5.66834,
6979.000,5.70658,
6978.000,5.7441,
6977.000,5.77784,
6976.000,5.80939,
6975.000,5.84245,
6974.000,5.87776,
6973.000,5.91283,
6972.000,5.94548,
6971.000,5.97601,
6970.000,6.00603,
6969.000,6.03665,
6968.000,6.06792,
6967.000,6.0991,
6966.000,6.12965,
6965.000,6.16007,
6964.000,6.19166,
6963.000,6.22515,
6962.000,6.2599,
6961.000,6.29457,
6960.000,6.32858,
6959.000,6.36287,
6958.000,6.39961,
6957.000,6.44022,
6956.000,6.48323,
6955.000,6.52479,
6954.000,6.56318,
6953.000,6.60146,
6952.000,6.64353,
6951.000,6.68862,
6950.000,6.73215,
6949.000,6.77158,
6948.000,6.80898,
6947.000,6.84741,
6946.000,6.88743,
6945.000,6.92814,
6944.000,6.96919,
6943.000,7.01083,
6942.000,7.05413,
6941.000,7.10135,
6940.000,7.15377,
6939.000,7.20801,
6938.000,7.25743,
6937.000,7.29929,
6936.000,7.33804,
6935.000,7.38006,
6934.000,7.42676,
6933.000,7.47427,
6932.000,7.51871,
6931.000,7.56022,
6930.000,7.60263,
6929.000,7.6494,
6928.000,7.69955,
6927.000,7.74804,
6926.000,7.7915,
6925.000,7.83308,
6924.000,7.87878,
6923.000,7.92933,
6922.000,7.97969,
6921.000,8.0273,
6920.000,8.07599,
6919.000,8.12974,
6918.000,8.18701,
6917.000,8.24378,
6916.000,8.29888,
6915.000,8.35298,
6914.000,8.40489,
6913.000,8.45285,
6912.000,8.49837,
6911.000,8.54525,
6910.000,8.59588,
6909.000,8.65052,
6908.000,8.70899,
6907.000,8.77085,
6906.000,8.83479,
6905.000,8.89968,
6904.000,8.96526,
6903.000,9.0301,
6902.000,9.09093,
6901.000,9.14556,
6900.000,9.19558,
6899.000,9.24444,
6898.000,9.29446,
6897.000,9.34694,
6896.000,9.40291,
6895.000,9.46183,
6894.000,9.52141,
6893.000,9.58032,
6892.000,9.63926,
6891.000,9.69831,
6890.000,9.75569,
6889.000,9.81106,
6888.000,9.86746,
6887.000,9.92746,
6886.000,9.98989,
6885.000,10.053,
6884.000,10.1174,
6883.000,10.184,
6882.000,10.2506,
6881.000,10.3139,
6880.000,10.3735,
6879.000,10.4307,
6878.000,10.4859,
6877.000,10.5394,
6876.000,10.5938,
6875.000,10.6513,
6874.000,10.7119,
6873.000,10.7748,
6872.000,10.8404,
6871.000,10.9079,
6870.000,10.9741,
6869.000,11.0368,
6868.000,11.0979,
6867.000,11.1596,
6866.000,11.2204,
6865.000,11.2785,
6864.000,11.3359,
6863.000,11.3958,
6862.000,11.4573,
6861.000,11.5182,
6860.000,11.5793,
6859.000,11.6414,
6858.000,11.7014,
6857.000,11.7556,
6856.000,11.8067,
6855.000,11.861,
6854.000,11.9201,
6853.000,11.9797,
6852.000,12.0372,
6851.000,12.0948,
6850.000,12.154,
6849.000,12.2123,
6848.000,12.2667,
6847.000,12.3181,
6846.000,12.3688,
6845.000,12.4196,
6844.000,12.4712,
6843.000,12.5246,
6842.000,12.5805,
6841.000,12.637,
6840.000,12.6913,
6839.000,12.7427,
6838.000,12.7925,
6837.000,12.8413,
6836.000,12.8872,
6835.000,12.9267,
6834.000,12.9595,
6833.000,12.9907,
6832.000,13.0268,
6831.000,13.0684,
6830.000,13.1112,
6829.000,13.1524,
6828.000,13.1935,
6827.000,13.2346,
6826.000,13.2711,
6825.000,13.2993,
6824.000,13.3219,
6823.000,13.3447,
6822.000,13.3691,
6821.000,13.3929,
6820.000,13.4146,
6819.000,13.4354,
6818.000,13.4563,
6817.000,13.4779,
6816.000,13.4998,
6815.000,13.5195,
6814.000,13.5321,
6813.000,13.5356,
6812.000,13.5335,
6811.000,13.5303,
6810.000,13.5262,
6809.000,13.5207,
6808.000,13.5173,
6807.000,13.5206,
6806.000,13.5306,
6805.000,13.5424,
6804.000,13.5509,
6803.000,13.553,
6802.000,13.5464,
6801.000,13.5311,
6800.000,13.5112,
6799.000,13.4915,
6798.000,13.4726,
6797.000,13.4528,
6796.000,13.4318,
6795.000,13.4104,
6794.000,13.3887,
6793.000,13.3665,
6792.000,13.3451,
6791.000,13.3248,
6790.000,13.3021,
6789.000,13.2729,
6788.000,13.239,
6787.000,13.205,
6786.000,13.1716,
6785.000,13.135,
6784.000,13.0939,
6783.000,13.0526,
6782.000,13.0147,
6781.000,12.9784,
6780.000,12.9403,
6779.000,12.9004,
6778.000,12.8606,
6777.000,12.8213,
6776.000,12.7812,
6775.000,12.7405,
6774.000,12.7004,
6773.000,12.66,
6772.000,12.6162,
6771.000,12.5673,
6770.000,12.516,
6769.000,12.4672,
6768.000,12.4229,
6767.000,12.3811,
6766.000,12.3387,
6765.000,12.2954,
6764.000,12.252,
6763.000,12.2073,
6762.000,12.158,
6761.000,12.1029,
6760.000,12.0435,
6759.000,11.983,
6758.000,11.9242,
6757.000,11.8686,
6756.000,11.8158,
6755.000,11.7646,
6754.000,11.7142,
6753.000,11.6654,
6752.000,11.6189,
6751.000,11.5735,
6750.000,11.5268,
6749.000,11.4779,
6748.000,11.4262,
6747.000,11.3699,
6746.000,11.308,
6745.000,11.2432,
6744.000,11.18,
6743.000,11.1206,
6742.000,11.0658,
6741.000,11.017,
6740.000,10.9747,
6739.000,10.9339,
6738.000,10.8877,
6737.000,10.8346,
6736.000,10.7795,
6735.000,10.7264,
6734.000,10.6745,
6733.000,10.6215,
6732.000,10.5688,
6731.000,10.5177,
6730.000,10.4669,
6729.000,10.414,
6728.000,10.3584,
6727.000,10.3017,
6726.000,10.2465,
6725.000,10.1947,
6724.000,10.1462,
6723.000,10.0966,
6722.000,10.0411,
6721.000,9.9806,
6720.000,9.92144,
6719.000,9.86766,
6718.000,9.81735,
6717.000,9.76712,
6716.000,9.71645,
6715.000,9.66622,
6714.000,9.61619,
6713.000,9.56587,
6712.000,9.5152,
6711.000,9.46309,
6710.000,9.40873,
6709.000,9.35489,
6708.000,9.30605,
6707.000,9.26162,
6706.000,9.21498,
6705.000,9.16172,
6704.000,9.10539,
6703.000,9.05187,
6702.000,9.00219,
6701.000,8.95299,
6700.000,8.90227,
6699.000,8.85085,
6698.000,8.7995,
6697.000,8.74923,
6696.000,8.70106,
6695.000,8.65403,
6694.000,8.60538,
6693.000,8.55504,
6692.000,8.50707,
6691.000,8.46394,
6690.000,8.42237,
6689.000,8.37789,
6688.000,8.33084,
6687.000,8.28408,
6686.000,8.23747,
6685.000,8.18913,
6684.000,8.14027,
6683.000,8.09387,
6682.000,8.04953,
6681.000,8.00396,
6680.000,7.95658,
6679.000,7.91031,
6678.000,7.86674,
6677.000,7.82379,
6676.000,7.7792,
6675.000,7.73347,
6674.000,7.68843,
6673.000,7.64445,
6672.000,7.5999,
6671.000,7.55248,
6670.000,7.50147,
6669.000,7.4497,
6668.000,7.40244,
6667.000,7.36253,
6666.000,7.32734,
6665.000,7.29195,
6664.000,7.25457,
6663.000,7.21652,
6662.000,7.17825,
6661.000,7.13795,
6660.000,7.09378,
6659.000,7.04568,
6658.000,6.99527,
6657.000,6.94581,
6656.000,6.90151,
6655.000,6.86449,
6654.000,6.83213,
6653.000,6.79946,
6652.000,6.76431,
6651.000,6.72812,
6650.000,6.69191,
6649.000,6.65379,
6648.000,6.61123,
6647.000,6.56431,
6646.000,6.51587,
6645.000,6.46938,
6644.000,6.42701,
6643.000,6.38845,
6642.000,6.35103,
6641.000,6.31216,
6640.000,6.27173,
6639.000,6.23143,
6638.000,6.19176,
6637.000,6.15132,
6636.000,6.10928,
6635.000,6.06732,
6634.000,6.02816,
6633.000,5.99257,
6632.000,5.9587,
6631.000,5.92393,
6630.000,5.88701,
6629.000,5.84867,
6628.000,5.8107,
6627.000,5.77469,
6626.000,5.74137,
6625.000,5.71047,
6624.000,5.68069,
6623.000,5.6501,
6622.000,5.61715,
6621.000,5.58166,
6620.000,5.5442,
6619.000,5.50499,
6618.000,5.46478,
6617.000,5.42626,
6616.000,5.39251,
6615.000,5.36341,
6614.000,5.33525,
6613.000,5.30483,
6612.000,5.27234,
6611.000,5.23915,
6610.000,5.20524,
6609.000,5.17088,
6608.000,5.13903,
6607.000,5.11259,
6606.000,5.08976,
6605.000,5.06503,
6604.000,5.03526,
6603.000,5.0023,
6602.000,4.96904,
6601.000,4.93554,
6600.000,4.90102,
6599.000,4.86753,
6598.000,4.83888,
6597.000,4.81597,
6596.000,4.79515,
6595.000,4.77173,
6594.000,4.74427,
6593.000,4.71481,
6592.000,4.68604,
6591.000,4.65902,
6590.000,4.63301,
6589.000,4.60667,
6588.000,4.57909,
6587.000,4.5504,
6586.000,4.52159,
6585.000,4.4939,
6584.000,4.4679,
6583.000,4.44357,
6582.000,4.42083,
6581.000,4.39939,
6580.000,4.37821,
6579.000,4.35587,
6578.000,4.3318,
6577.000,4.30652,
6576.000,4.28057,
6575.000,4.25447,
6574.000,4.23016,
6573.000,4.21076,
6572.000,4.19715,
6571.000,4.18566,
6570.000,4.17093,
6569.000,4.1507,
6568.000,4.12621,
6567.000,4.0991,
6566.000,4.07055,
6565.000,4.04317,
6564.000,4.02053,
6563.000,4.00348,
6562.000,3.98892,
6561.000,3.9733,
6560.000,3.9555,
6559.000,3.93522,
6558.000,3.91103,
6557.000,3.88252,
6556.000,3.85306,
6555.000,3.82806,
6554.000,3.81063,
6553.000,3.79957,
6552.000,3.79079,
6551.000,3.77964,
6550.000,3.7632,
6549.000,3.7422,
6548.000,3.72015,
6547.000,3.69963,
6546.000,3.68054,
6545.000,3.66269,
6544.000,3.64814,
6543.000,3.63832,
6542.000,3.63035,
6541.000,3.61913,
6540.000,3.60298,
6539.000,3.58482,
6538.000,3.56766,
6537.000,3.5517,
6536.000,3.53589,
6535.000,3.51986,
6534.000,3.50351,
6533.000,3.48678,
6532.000,3.47078,
6531.000,3.45767,
6530.000,3.4482,
6529.000,3.44065,
6528.000,3.43285,
6527.000,3.4237,
6526.000,3.41228,
6525.000,3.39733,
6524.000,3.3789,
6523.000,3.35944,
6522.000,3.34177,
6521.000,3.32689,
6520.000,3.31439,
6519.000,3.30397,
6518.000,3.29528,
6517.000,3.287,
6516.000,3.27749,
6515.000,3.2665,
6514.000,3.25526,
6513.000,3.24513,
6512.000,3.23649,
6511.000,3.22904,
6510.000,3.22246,
6509.000,3.21691,
6508.000,3.21239,
6507.000,3.20765,
6506.000,3.20027,
6505.000,3.18927,
6504.000,3.17713,
6503.000,3.16767,
6502.000,3.16168,
6501.000,3.15647,
6500.000,3.15004,
6499.000,3.14325,
6498.000,3.1368,
6497.000,3.12859,
6496.000,3.11676,
6495.000,3.10391,
6494.000,3.09519,
6493.000,3.09244,
6492.000,3.09221,
6491.000,3.08985,
6490.000,3.0837,
6489.000,3.075,
6488.000,3.06582,
6487.000,3.05776,
6486.000,3.05139,
6485.000,3.04634,
6484.000,3.04253,
6483.000,3.04115,
6482.000,3.04277,
6481.000,3.04467,
6480.000,3.04224,
6479.000,3.03418,
6478.000,3.02449,
6477.000,3.01769,
6476.000,3.01373,
6475.000,3.00949,
6474.000,3.00405,
6473.000,3.0002,
6472.000,3.00074,
6471.000,3.00538,
6470.000,3.01145,
6469.000,3.01614,
6468.000,3.01764,
6467.000,3.01576,
6466.000,3.01234,
6465.000,3.00998,
6464.000,3.00941,
6463.000,3.00895,
6462.000,3.00757,
6461.000,3.00719,
6460.000,3.01054,
6459.000,3.01713,
6458.000,3.02344,
6457.000,3.02715,
6456.000,3.0296,
6455.000,3.0333,
6454.000,3.03862,
6453.000,3.04422,
6452.000,3.04962,
6451.000,3.05578,
6450.000,3.06299,
6449.000,3.07001,
6448.000,3.07558,
6447.000,3.0798,
6446.000,3.08346,
6445.000,3.08662,
6444.000,3.08881,
6443.000,3.09031,
6442.000,3.09246,
6441.000,3.0965,
6440.000,3.10258,
6439.000,3.10961,
6438.000,3.11606,
6437.000,3.1213,
6436.000,3.12622,
6435.000,3.13223,
6434.000,3.13968,
6433.000,3.14763,
6432.000,3.15558,
6431.000,3.16441,
6430.000,3.17492,
6429.000,3.18622,
6428.000,3.19662,
6427.000,3.20611,
6426.000,3.21656,
6425.000,3.22919,
6424.000,3.24292,
6423.000,3.25587,
6422.000,3.26763,
6421.000,3.27904,
6420.000,3.29037,
6419.000,3.30091,
6418.000,3.31052,
6417.000,3.32053,
6416.000,3.33229,
6415.000,3.34541,
6414.000,3.35816,
6413.000,3.36964,
6412.000,3.38105,
6411.000,3.39458,
6410.000,3.41174,
6409.000,3.43276,
6408.000,3.45659,
6407.000,3.48082,
6406.000,3.50238,
6405.000,3.51966,
6404.000,3.53425,
6403.000,3.54926,
6402.000,3.56602,
6401.000,3.58346,
6400.000,3.60103,
6399.000,3.62022,
6398.000,3.64185,
6397.000,3.66333,
6396.000,3.68078,
6395.000,3.69391,
6394.000,3.70695,
6393.000,3.72434,
6392.000,3.74692,
6391.000,3.77282,
6390.000,3.8001,
6389.000,3.82741,
6388.000,3.85318,
6387.000,3.8758,
6386.000,3.89494,
6385.000,3.91188,
6384.000,3.92855,
6383.000,3.94652,
6382.000,3.96647,
6381.000,3.98838,
6380.000,4.01215,
6379.000,4.03833,
6378.000,4.06727,
6377.000,4.09782,
6376.000,4.12767,
6375.000,4.15588,
6374.000,4.18374,
6373.000,4.21236,
6372.000,4.24061,
6371.000,4.26713,
6370.000,4.29332,
6369.000,4.32198,
6368.000,4.35313,
6367.000,4.38331,
6366.000,4.4095,
6365.000,4.43208,
6364.000,4.4533,
6363.000,4.47495,
6362.000,4.49826,
6361.000,4.52463,
6360.000,4.55489,
6359.000,4.58857,
6358.000,4.6247,
6357.000,4.66221,
6356.000,4.69921,
6355.000,4.73363,
6354.000,4.76569,
6353.000,4.79823,
6352.000,4.8331,
6351.000,4.86879,
6350.000,4.90321,
6349.000,4.93705,
6348.000,4.97242,
6347.000,5.00938,
6346.000,5.04639,
6345.000,5.08339,
6344.000,5.12142,
6343.000,5.15934,
6342.000,5.19394,
6341.000,5.22401,
6340.000,5.25244,
6339.000,5.28366,
6338.000,5.3204,
6337.000,5.36282,
6336.000,5.40865,
6335.000,5.45364,
6334.000,5.49407,
6333.000,5.53021,
6332.000,5.56575,
6331.000,5.60363,
6330.000,5.64386,
6329.000,5.68583,
6328.000,5.73025,
6327.000,5.77721,
6326.000,5.82438,
6325.000,5.86877,
6324.000,5.90959,
6323.000,5.94831,
6322.000,5.98702,
6321.000,6.02738,
6320.000,6.07003,
6319.000,6.11404,
6318.000,6.15786,
6317.000,6.20171,
6316.000,6.24731,
6315.000,6.29474,
6314.000,6.3413,
6313.000,6.38499,
6312.000,6.42767,
6311.000,6.47307,
6310.000,6.52237,
6309.000,6.57352,
6308.000,6.62403,
6307.000,6.67311,
6306.000,6.72145,
6305.000,6.77026,
6304.000,6.82016,
6303.000,6.87011,
6302.000,6.91794,
6301.000,6.96283,
6300.000,7.00686,
6299.000,7.05291,
6298.000,7.10168,
6297.000,7.1518,
6296.000,7.20235,
6295.000,7.25393,
6294.000,7.30701,
6293.000,7.36083,
6292.000,7.41434,
6291.000,7.46764,
6290.000,7.52168,
6289.000,7.57646,
6288.000,7.63033,
6287.000,7.68175,
6286.000,7.73148,
6285.000,7.78228,
6284.000,7.83607,
6283.000,7.89249,
6282.000,7.95065,
6281.000,8.01068,
6280.000,8.07196,
6279.000,8.13141,
6278.000,8.18582,
6277.000,8.23573,
6276.000,8.28504,
6275.000,8.33679,
6274.000,8.39125,
6273.000,8.44777,
6272.000,8.50644,
6271.000,8.56725,
6270.000,8.6294,
6269.000,8.69182,
6268.000,8.75332,
6267.000,8.81251,
6266.000,8.86919,
6265.000,8.92528,
6264.000,8.98263,
6263.000,9.04028,
6262.000,9.096,
6261.000,9.15026,
6260.000,9.20589,
6259.000,9.26406,
6258.000,9.32327,
6257.000,9.38269,
6256.000,9.44358,
6255.000,9.50664,
6254.000,9.57062,
6253.000,9.63441,
6252.000,9.69817,
6251.000,9.76136,
6250.000,9.82205,
6249.000,9.87952,
6248.000,9.93552,
6247.000,9.99208,
6246.000,10.0494,
6245.000,10.107,
6244.000,10.165,
6243.000,10.2238,
6242.000,10.2836,
6241.000,10.345,
6240.000,10.4077,
6239.000,10.47,
6238.000,10.5299,
6237.000,10.5882,
6236.000,10.6459,
6235.000,10.7018,
6234.000,10.7537,
6233.000,10.8031,
6232.000,10.8547,
6231.000,10.9106,
6230.000,10.9685,
6229.000,11.0261,
6228.000,11.0825,
6227.000,11.1367,
6226.000,11.1875,
6225.000,11.2358,
6224.000,11.2848,
6223.000,11.3354,
6222.000,11.3856,
6221.000,11.4345,
6220.000,11.4833,
6219.000,11.5317,
6218.000,11.5775,
6217.000,11.6203,
6216.000,11.6623,
6215.000,11.7041,
6214.000,11.7436,
6213.000,11.7801,
6212.000,11.8158,
6211.000,11.851,
6210.000,11.8839,
6209.000,11.9143,
6208.000,11.9442,
6207.000,11.9732,
6206.000,11.9971,
6205.000,12.0154,
6204.000,12.0335,
6203.000,12.0559,
6202.000,12.0806,
6201.000,12.1038,
6200.000,12.1251,
6199.000,12.1454,
6198.000,12.1623,
6197.000,12.1731,
6196.000,12.179,
6195.000,12.1829,
6194.000,12.1852,
6193.000,12.1856,
6192.000,12.1851,
6191.000,12.1849,
6190.000,12.1849,
6189.000,12.1844,
6188.000,12.1837,
6187.000,12.1816,
6186.000,12.1746,
6185.000,12.1611,
6184.000,12.1434,
6183.000,12.1247,
6182.000,12.1051,
6181.000,12.0844,
6180.000,12.0644,
6179.000,12.0472,
6178.000,12.031,
6177.000,12.0113,
6176.000,11.9859,
6175.000,11.9562,
6174.000,11.9242,
6173.000,11.8912,
6172.000,11.8574,
6171.000,11.8226,
6170.000,11.7879,
6169.000,11.7552,
6168.000,11.7246,
6167.000,11.6923,
6166.000,11.6549,
6165.000,11.6136,
6164.000,11.5736,
6163.000,11.5364,
6162.000,11.4989,
6161.000,11.4582,
6160.000,11.4152,
6159.000,11.3708,
6158.000,11.3236,
6157.000,11.274,
6156.000,11.2251,
6155.000,11.179,
6154.000,11.1345,
6153.000,11.0902,
6152.000,11.0462,
6151.000,11.001,
6150.000,10.9503,
6149.000,10.893,
6148.000,10.8338,
6147.000,10.778,
6146.000,10.7258,
6145.000,10.6745,
6144.000,10.6231,
6143.000,10.5728,
6142.000,10.5235,
6141.000,10.4739,
6140.000,10.4234,
6139.000,10.3709,
6138.000,10.3156,
6137.000,10.2582,
6136.000,10.202,
6135.000,10.1492,
6134.000,10.0981,
6133.000,10.0459,
6132.000,9.99238,
6131.000,9.93895,
6130.000,9.88499,
6129.000,9.8285,
6128.000,9.76989,
6127.000,9.71255,
6126.000,9.65942,
6125.000,9.60989,
6124.000,9.56063,
6123.000,9.50876,
6122.000,9.45442,
6121.000,9.40013,
6120.000,9.34739,
6119.000,9.29462,
6118.000,9.23958,
6117.000,9.18261,
6116.000,9.12545,
6115.000,9.06802,
6114.000,9.00966,
6113.000,8.95311,
6112.000,8.90332,
6111.000,8.86091,
6110.000,8.81984,
6109.000,8.77355,
6108.000,8.72094,
6107.000,8.66496,
6106.000,8.6083,
6105.000,8.55229,
6104.000,8.49812,
6103.000,8.44665,
6102.000,8.39772,
6101.000,8.3507,
6100.000,8.30444,
6099.000,8.25665,
6098.000,8.2055,
6097.000,8.15262,
6096.000,8.10192,
6095.000,8.05422,
6094.000,8.00559,
6093.000,7.95272,
6092.000,7.89743,
6091.000,7.84377,
6090.000,7.79304,
6089.000,7.74396,
6088.000,7.69607,
6087.000,7.65004,
6086.000,7.60543,
6085.000,7.56035,
6084.000,7.51338,
6083.000,7.46419,
6082.000,7.41311,
6081.000,7.36149,
6080.000,7.31169,
6079.000,7.26552,
6078.000,7.22254,
6077.000,7.18085,
6076.000,7.13863,
6075.000,7.09451,
6074.000,7.04752,
6073.000,6.99783,
6072.000,6.94686,
6071.000,6.89578,
6070.000,6.84489,
6069.000,6.79474,
6068.000,6.74656,
6067.000,6.70044,
6066.000,6.65455,
6065.000,6.60777,
6064.000,6.56192,
6063.000,6.51995,
6062.000,6.4823,
6061.000,6.44621,
6060.000,6.40828,
6059.000,6.36683,
6058.000,6.32188,
6057.000,6.2744,
6056.000,6.22557,
6055.000,6.17648,
6054.000,6.12825,
6053.000,6.08224,
6052.000,6.03926,
6051.000,5.9986,
6050.000,5.95852,
6049.000,5.91801,
6048.000,5.87736,
6047.000,5.83695,
6046.000,5.79645,
6045.000,5.75547,
6044.000,5.71405,
6043.000,5.67226,
6042.000,5.63033,
6041.000,5.58932,
6040.000,5.55047,
6039.000,5.51351,
6038.000,5.47683,
6037.000,5.4396,
6036.000,5.40238,
6035.000,5.36512,
6034.000,5.32608,
6033.000,5.28404,
6032.000,5.24053,
6031.000,5.19882,
6030.000,5.16118,
6029.000,5.12777,
6028.000,5.09727,
6027.000,5.06778,
6026.000,5.03738,
6025.000,5.00481,
6024.000,4.96949,
6023.000,4.93117,
6022.000,4.89043,
6021.000,4.8494,
6020.000,4.81057,
6019.000,4.77443,
6018.000,4.73932,
6017.000,4.70394,
6016.000,4.6687,
6015.000,4.63442,
6014.000,4.60112,
6013.000,4.56894,
6012.000,4.53858,
6011.000,4.50978,
6010.000,4.48055,
6009.000,4.44928,
6008.000,4.41673,
6007.000,4.38465,
6006.000,4.3534,
6005.000,4.3222,
6004.000,4.2909,
6003.000,4.26002,
6002.000,4.22932,
6001.000,4.19792,
6000.000,4.16589,
5999.000,4.13457,
5998.000,4.1051,
5997.000,4.07737,
5996.000,4.05028,
5995.000,4.02244,
5994.000,3.99276,
5993.000,3.96106,
5992.000,3.92844,
5991.000,3.89668,
5990.000,3.86726,
5989.000,3.84079,
5988.000,3.81679,
5987.000,3.79389,
5986.000,3.77062,
5985.000,3.74626,
5984.000,3.7207,
5983.000,3.69375,
5982.000,3.66556,
5981.000,3.63764,
5980.000,3.6119,
5979.000,3.58827,
5978.000,3.56474,
5977.000,3.54035,
5976.000,3.51644,
5975.000,3.49385,
5974.000,3.47106,
5973.000,3.44685,
5972.000,3.42326,
5971.000,3.40316,
5970.000,3.38583,
5969.000,3.36786,
5968.000,3.34775,
5967.000,3.32689,
5966.000,3.30578,
5965.000,3.2825,
5964.000,3.2563,
5963.000,3.22975,
5962.000,3.20566,
5961.000,3.18374,
5960.000,3.16225,
5959.000,3.14141,
5958.000,3.1227,
5957.000,3.10605,
5956.000,3.0898,
5955.000,3.07306,
5954.000,3.05598,
5953.000,3.03811,
5952.000,3.01842,
5951.000,2.99727,
5950.000,2.97641,
5949.000,2.95668,
5948.000,2.93762,
5947.000,2.91949,
5946.000,2.90373,
5945.000,2.89043,
5944.000,2.87712,
5943.000,2.86135,
5942.000,2.84314,
5941.000,2.82373,
5940.000,2.80318,
5939.000,2.78118,
5938.000,2.7593,
5937.000,2.74033,
5936.000,2.72522,
5935.000,2.71247,
5934.000,2.70056,
5933.000,2.68934,
5932.000,2.67855,
5931.000,2.66695,
5930.000,2.65401,
5929.000,2.64108,
5928.000,2.62945,
5927.000,2.61792,
5926.000,2.60411,
5925.000,2.58759,
5924.000,2.57038,
5923.000,2.55452,
5922.000,2.54074,
5921.000,2.52948,
5920.000,2.52122,
5919.000,2.51505,
5918.000,2.50803,
5917.000,2.4975,
5916.000,2.48349,
5915.000,2.46805,
5914.000,2.4526,
5913.000,2.4371,
5912.000,2.42145,
5911.000,2.40626,
5910.000,2.39184,
5909.000,2.37759,
5908.000,2.36328,
5907.000,2.3504,
5906.000,2.34088,
5905.000,2.33474,
5904.000,2.32969,
5903.000,2.32327,
5902.000,2.31478,
5901.000,2.30473,
5900.000,2.2934,
5899.000,2.28072,
5898.000,2.26731,
5897.000,2.25457,
5896.000,2.24337,
5895.000,2.23325,
5894.000,2.22336,
5893.000,2.21375,
5892.000,2.20525,
5891.000,2.19836,
5890.000,2.19269,
5889.000,2.18742,
5888.000,2.18172,
5887.000,2.17487,
5886.000,2.16652,
5885.000,2.15725,
5884.000,2.14832,
5883.000,2.14073,
5882.000,2.13455,
5881.000,2.12937,
5880.000,2.12475,
5879.000,2.1201,
5878.000,2.11435,
5877.000,2.10646,
5876.000,2.09658,
5875.000,2.08647,
5874.000,2.07849,
5873.000,2.07398,
5872.000,2.0723,
5871.000,2.07144,
5870.000,2.06931,
5869.000,2.06481,
5868.000,2.05791,
5867.000,2.0495,
5866.000,2.04138,
5865.000,2.03589,
5864.000,2.03453,
5863.000,2.03656,
5862.000,2.03929,
5861.000,2.04015,
5860.000,2.03836,
5859.000,2.03473,
5858.000,2.03049,
5857.000,2.02657,
5856.000,2.02348,
5855.000,2.02139,
5854.000,2.02038,
5853.000,2.02043,
5852.000,2.02097,
5851.000,2.02077,
5850.000,2.01898,
5849.000,2.01644,
5848.000,2.01497,
5847.000,2.01504,
5846.000,2.01531,
5845.000,2.01473,
5844.000,2.01405,
5843.000,2.0141,
5842.000,2.01416,
5841.000,2.0134,
5840.000,2.01345,
5839.000,2.01708,
5838.000,2.02461,
5837.000,2.03293,
5836.000,2.03852,
5835.000,2.04018,
5834.000,2.03894,
5833.000,2.03659,
5832.000,2.03505,
5831.000,2.03574,
5830.000,2.03879,
5829.000,2.04318,
5828.000,2.04835,
5827.000,2.05455,
5826.000,2.0617,
5825.000,2.06856,
5824.000,2.074,
5823.000,2.07822,
5822.000,2.08205,
5821.000,2.0858,
5820.000,2.08967,
5819.000,2.09463,
5818.000,2.10181,
5817.000,2.11118,
5816.000,2.12134,
5815.000,2.13074,
5814.000,2.13864,
5813.000,2.14531,
5812.000,2.15163,
5811.000,2.15793,
5810.000,2.16353,
5809.000,2.16789,
5808.000,2.17242,
5807.000,2.17988,
5806.000,2.19151,
5805.000,2.20571,
5804.000,2.21981,
5803.000,2.23247,
5802.000,2.24336,
5801.000,2.25196,
5800.000,2.25821,
5799.000,2.2636,
5798.000,2.27028,
5797.000,2.27892,
5796.000,2.28873,
5795.000,2.29926,
5794.000,2.31097,
5793.000,2.32402,
5792.000,2.33765,
5791.000,2.35102,
5790.000,2.36394,
5789.000,2.37632,
5788.000,2.3877,
5787.000,2.39787,
5786.000,2.40717,
5785.000,2.41628,
5784.000,2.42605,
5783.000,2.4377,
5782.000,2.45229,
5781.000,2.46954,
5780.000,2.48768,
5779.000,2.50493,
5778.000,2.52065,
5777.000,2.53516,
5776.000,2.54922,
5775.000,2.56413,
5774.000,2.58116,
5773.000,2.60024,
5772.000,2.61959,
5771.000,2.63735,
5770.000,2.65309,
5769.000,2.66753,
5768.000,2.68151,
5767.000,2.69601,
5766.000,2.71244,
5765.000,2.73173,
5764.000,2.75293,
5763.000,2.77388,
5762.000,2.79323,
5761.000,2.81138,
5760.000,2.82947,
5759.000,2.84816,
5758.000,2.86765,
5757.000,2.88804,
5756.000,2.90903,
5755.000,2.92983,
5754.000,2.95,
5753.000,2.9701,
5752.000,2.99127,
5751.000,3.014,
5750.000,3.03782,
5749.000,3.06166,
5748.000,3.08449,
5747.000,3.1059,
5746.000,3.12687,
5745.000,3.14955,
5744.000,3.1754,
5743.000,3.20362,
5742.000,3.23194,
5741.000,3.25908,
5740.000,3.28545,
5739.000,3.31167,
5738.000,3.33725,
5737.000,3.36147,
5736.000,3.38459,
5735.000,3.40775,
5734.000,3.43199,
5733.000,3.45817,
5732.000,3.48705,
5731.000,3.51851,
5730.000,3.5509,
5729.000,3.58226,
5728.000,3.61204,
5727.000,3.64093,
5726.000,3.66941,
5725.000,3.6974,
5724.000,3.72537,
5723.000,3.75442,
5722.000,3.78504,
5721.000,3.81654,
5720.000,3.84831,
5719.000,3.88053,
5718.000,3.91309,
5717.000,3.9448,
5716.000,3.9746,
5715.000,4.00325,
5714.000,4.03304,
5713.000,4.06568,
5712.000,4.10119,
5711.000,4.13858,
5710.000,4.17678,
5709.000,4.215,
5708.000,4.25279,
5707.000,4.29002,
5706.000,4.3266,
5705.000,4.36224,
5704.000,4.39704,
5703.000,4.4321,
5702.000,4.4687,
5701.000,4.50702,
5700.000,4.54607,
5699.000,4.58512,
5698.000,4.62432,
5697.000,4.66363,
5696.000,4.70235,
5695.000,4.74013,
5694.000,4.77793,
5693.000,4.81714,
5692.000,4.85804,
5691.000,4.89993,
5690.000,4.94219,
5689.000,4.98435,
5688.000,5.02561,
5687.000,5.06557,
5686.000,5.10535,
5685.000,5.14678,
5684.000,5.19064,
5683.000,5.23629,
5682.000,5.28304,
5681.000,5.33034,
5680.000,5.37676,
5679.000,5.42069,
5678.000,5.46269,
5677.000,5.50556,
5676.000,5.55115,
5675.000,5.59831,
5674.000,5.64513,
5673.000,5.69163,
5672.000,5.73885,
5671.000,5.78663,
5670.000,5.83417,
5669.000,5.88181,
5668.000,5.93041,
5667.000,5.97943,
5666.000,6.02756,
5665.000,6.07513,
5664.000,6.12397,
5663.000,6.17497,
5662.000,6.22708,
5661.000,6.27888,
5660.000,6.32969,
5659.000,6.37918,
5658.000,6.42761,
5657.000,6.47634,
5656.000,6.52713,
5655.000,6.58035,
5654.000,6.6351,
5653.000,6.69055,
5652.000,6.74605,
5651.000,6.80038,
5650.000,6.85266,
5649.000,6.90407,
5648.000,6.95698,
5647.000,7.01231,
5646.000,7.0692,
5645.000,7.12727,
5644.000,7.18701,
5643.000,7.24768,
5642.000,7.30698,
5641.000,7.3636,
5640.000,7.4185,
5639.000,7.47292,
5638.000,7.52685,
5637.000,7.58014,
5636.000,7.63367,
5635.000,7.68837,
5634.000,7.74443,
5633.000,7.80202,
5632.000,7.86148,
5631.000,7.92203,
5630.000,7.98172,
5629.000,8.03955,
5628.000,8.09631,
5627.000,8.15279,
5626.000,8.20876,
5625.000,8.26436,
5624.000,8.32101,
5623.000,8.37958,
5622.000,8.43888,
5621.000,8.49709,
5620.000,8.55385,
5619.000,8.61002,
5618.000,8.66639,
5617.000,8.72331,
5616.000,8.78104,
5615.000,8.83946,
5614.000,8.89792,
5613.000,8.95576,
5612.000,9.01245,
5611.000,9.06728,
5610.000,9.11989,
5609.000,9.17113,
5608.000,9.22231,
5607.000,9.27368,
5606.000,9.32473,
5605.000,9.37573,
5604.000,9.42734,
5603.000,9.47872,
5602.000,9.5279,
5601.000,9.57423,
5600.000,9.61889,
5599.000,9.6628,
5598.000,9.70553,
5597.000,9.74678,
5596.000,9.78712,
5595.000,9.82682,
5594.000,9.86542,
5593.000,9.903,
5592.000,9.94022,
5591.000,9.97687,
5590.000,10.0117,
5589.000,10.0444,
5588.000,10.0752,
5587.000,10.1037,
5586.000,10.1289,
5585.000,10.151,
5584.000,10.172,
5583.000,10.1925,
5582.000,10.2116,
5581.000,10.2287,
5580.000,10.2446,
5579.000,10.2596,
5578.000,10.272,
5577.000,10.281,
5576.000,10.2877,
5575.000,10.2931,
5574.000,10.2969,
5573.000,10.2983,
5572.000,10.2977,
5571.000,10.2949,
5570.000,10.2889,
5569.000,10.2789,
5568.000,10.2663,
5567.000,10.2524,
5566.000,10.2377,
5565.000,10.2222,
5564.000,10.2066,
5563.000,10.1905,
5562.000,10.1727,
5561.000,10.1524,
5560.000,10.13,
5559.000,10.1058,
5558.000,10.0793,
5557.000,10.0506,
5556.000,10.0205,
5555.000,9.98974,
5554.000,9.95773,
5553.000,9.92415,
5552.000,9.88966,
5551.000,9.85457,
5550.000,9.81809,
5549.000,9.77993,
5548.000,9.74137,
5547.000,9.70364,
5546.000,9.66614,
5545.000,9.62702,
5544.000,9.58492,
5543.000,9.53953,
5542.000,9.49148,
5541.000,9.44236,
5540.000,9.3942,
5539.000,9.34824,
5538.000,9.30441,
5537.000,9.26203,
5536.000,9.22013,
5535.000,9.17722,
5534.000,9.13181,
5533.000,9.08341,
5532.000,9.03242,
5531.000,8.97938,
5530.000,8.92522,
5529.000,8.87174,
5528.000,8.82045,
5527.000,8.77086,
5526.000,8.72122,
5525.000,8.67081,
5524.000,8.62009,
5523.000,8.56909,
5522.000,8.51735,
5521.000,8.46554,
5520.000,8.41513,
5519.000,8.36616,
5518.000,8.31716,
5517.000,8.26752,
5516.000,8.21822,
5515.000,8.16954,
5514.000,8.12017,
5513.000,8.0692,
5512.000,8.01735,
5511.000,7.96534,
5510.000,7.91262,
5509.000,7.8588,
5508.000,7.80486,
5507.000,7.75209,
5506.000,7.70087,
5505.000,7.65168,
5504.000,7.60555,
5503.000,7.56213,
5502.000,7.51838,
5501.000,7.47099,
5500.000,7.41923,
5499.000,7.36465,
5498.000,7.30919,
5497.000,7.25461,
5496.000,7.20277,
5495.000,7.15454,
5494.000,7.10869,
5493.000,7.06318,
5492.000,7.01728,
5491.000,6.97125,
5490.000,6.92452,
5489.000,6.87566,
5488.000,6.82438,
5487.000,6.77247,
5486.000,6.72234,
5485.000,6.67522,
5484.000,6.63075,
5483.000,6.58749,
5482.000,6.54351,
5481.000,6.49748,
5480.000,6.44976,
5479.000,6.40213,
5478.000,6.3561,
5477.000,6.31166,
5476.000,6.26775,
5475.000,6.22356,
5474.000,6.17895,
5473.000,6.13374,
5472.000,6.08752,
5471.000,6.04029,
5470.000,5.99288,
5469.000,5.94647,
5468.000,5.9016,
5467.000,5.85793,
5466.000,5.81487,
5465.000,5.77223,
5464.000,5.72987,
5463.000,5.6872,
5462.000,5.6435,
5461.000,5.59888,
5460.000,5.55449,
5459.000,5.51132,
5458.000,5.46934,
5457.000,5.42781,
5456.000,5.38611,
5455.000,5.34381,
5454.000,5.30076,
5453.000,5.25733,
5452.000,5.21433,
5451.000,5.17237,
5450.000,5.13173,
5449.000,5.09269,
5448.000,5.05534,
5447.000,5.01902,
5446.000,4.98273,
5445.000,4.94619,
5444.000,4.90958,
5443.000,4.87226,
5442.000,4.83284,
5441.000,4.79109,
5440.000,4.74883,
5439.000,4.70819,
5438.000,4.66973,
5437.000,4.63258,
5436.000,4.59577,
5435.000,4.55862,
5434.000,4.52066,
5433.000,4.48207,
5432.000,4.44393,
5431.000,4.40734,
5430.000,4.37229,
5429.000,4.33785,
5428.000,4.30319,
5427.000,4.26782,
5426.000,4.23124,
5425.000,4.19348,
5424.000,4.15603,
5423.000,4.12119,
5422.000,4.08969,
5421.000,4.05921,
5420.000,4.02623,
5419.000,3.9894,
5418.000,3.95065,
5417.000,3.91296,
5416.000,3.8781,
5415.000,3.84631,
5414.000,3.81701,
5413.000,3.78885,
5412.000,3.75996,
5411.000,3.72918,
5410.000,3.69714,
5409.000,3.66537,
5408.000,3.63448,
5407.000,3.60381,
5406.000,3.57261,
5405.000,3.54112,
5404.000,3.51019,
5403.000,3.48059,
5402.000,3.45257,
5401.000,3.42564,
5400.000,3.39858,
5399.000,3.37034,
5398.000,3.34108,
5397.000,3.31187,
5396.000,3.28349,
5395.000,3.25587,
5394.000,3.22878,
5393.000,3.20223,
5392.000,3.17623,
5391.000,3.15048,
5390.000,3.12501,
5389.000,3.10035,
5388.000,3.07671,
5387.000,3.05333,
5386.000,3.02909,
5385.000,3.00355,
5384.000,2.97727,
5383.000,2.95109,
5382.000,2.9257,
5381.000,2.90179,
5380.000,2.87999,
5379.000,2.8602,
5378.000,2.84113,
5377.000,2.82068,
5376.000,2.79745,
5375.000,2.77191,
5374.000,2.74595,
5373.000,2.72121,
5372.000,2.69839,
5371.000,2.67752,
5370.000,2.65814,
5369.000,2.63902,
5368.000,2.61871,
5367.000,2.59702,
5366.000,2.57554,
5365.000,2.55571,
5364.000,2.53692,
5363.000,2.51727,
5362.000,2.49611,
5361.000,2.47478,
5360.000,2.45491,
5359.000,2.437,
5358.000,2.42093,
5357.000,2.40638,
5356.000,2.39236,
5355.000,2.37702,
5354.000,2.35936,
5353.000,2.3406,
5352.000,2.32287,
5351.000,2.30641,
5350.000,2.28928,
5349.000,2.26994,
5348.000,2.24906,
5347.000,2.22878,
5346.000,2.21075,
5345.000,2.1952,
5344.000,2.18141,
5343.000,2.1685,
5342.000,2.15579,
5341.000,2.14271,
5340.000,2.12895,
5339.000,2.11434,
5338.000,2.09863,
5337.000,2.0818,
5336.000,2.06469,
5335.000,2.04878,
5334.000,2.03499,
5333.000,2.02277,
5332.000,2.01077,
5331.000,1.99786,
5330.000,1.98362,
5329.000,1.96806,
5328.000,1.95171,
5327.000,1.93574,
5326.000,1.92134,
5325.000,1.90871,
5324.000,1.89704,
5323.000,1.88552,
5322.000,1.87403,
5321.000,1.86258,
5320.000,1.85093,
5319.000,1.83889,
5318.000,1.82653,
5317.000,1.81391,
5316.000,1.80107,
5315.000,1.78829,
5314.000,1.77601,
5313.000,1.76419,
5312.000,1.75242,
5311.000,1.7407,
5310.000,1.72944,
5309.000,1.7185,
5308.000,1.70716,
5307.000,1.69542,
5306.000,1.6845,
5305.000,1.67537,
5304.000,1.66743,
5303.000,1.65924,
5302.000,1.65,
5301.000,1.6397,
5300.000,1.6285,
5299.000,1.61693,
5298.000,1.6061,
5297.000,1.59662,
5296.000,1.58759,
5295.000,1.57762,
5294.000,1.56673,
5293.000,1.55633,
5292.000,1.54762,
5291.000,1.54072,
5290.000,1.53519,
5289.000,1.53034,
5288.000,1.52507,
5287.000,1.51839,
5286.000,1.51047,
5285.000,1.50228,
5284.000,1.49429,
5283.000,1.48629,
5282.000,1.4784,
5281.000,1.47111,
5280.000,1.46424,
5279.000,1.45687,
5278.000,1.44894,
5277.000,1.44167,
5276.000,1.43589,
5275.000,1.43093,
5274.000,1.4257,
5273.000,1.42011,
5272.000,1.41463,
5271.000,1.40938,
5270.000,1.40437,
5269.000,1.40014,
5268.000,1.39699,
5267.000,1.39404,
5266.000,1.38993,
5265.000,1.3845,
5264.000,1.37893,
5263.000,1.37427,
5262.000,1.37065,
5261.000,1.36755,
5260.000,1.36429,
5259.000,1.36031,
5258.000,1.35572,
5257.000,1.35164,
5256.000,1.34931,
5255.000,1.34875,
5254.000,1.34851,
5253.000,1.34717,
5252.000,1.34457,
5251.000,1.34139,
5250.000,1.33819,
5249.000,1.33527,
5248.000,1.33289,
5247.000,1.33109,
5246.000,1.32949,
5245.000,1.32771,
5244.000,1.32584,
5243.000,1.32427,
5242.000,1.32306,
5241.000,1.32167,
5240.000,1.31946,
5239.000,1.31643,
5238.000,1.31353,
5237.000,1.312,
5236.000,1.31246,
5235.000,1.31436,
5234.000,1.31648,
5233.000,1.31792,
5232.000,1.31854,
5231.000,1.31863,
5230.000,1.31872,
5229.000,1.31934,
5228.000,1.32065,
5227.000,1.32201,
5226.000,1.32246,
5225.000,1.32191,
5224.000,1.32147,
5223.000,1.32236,
5222.000,1.32458,
5221.000,1.32709,
5220.000,1.32898,
5219.000,1.33008,
5218.000,1.33069,
5217.000,1.3312,
5216.000,1.33219,
5215.000,1.33414,
5214.000,1.33709,
5213.000,1.3406,
5212.000,1.34446,
5211.000,1.34888,
5210.000,1.35392,
5209.000,1.35883,
5208.000,1.36242,
5207.000,1.36423,
5206.000,1.36491,
5205.000,1.36553,
5204.000,1.36676,
5203.000,1.36885,
5202.000,1.37202,
5201.000,1.37635,
5200.000,1.38159,
5199.000,1.38735,
5198.000,1.39331,
5197.000,1.39919,
5196.000,1.40462,
5195.000,1.40922,
5194.000,1.41303,
5193.000,1.41659,
5192.000,1.42043,
5191.000,1.4247,
5190.000,1.42918,
5189.000,1.43368,
5188.000,1.43827,
5187.000,1.44333,
5186.000,1.4494,
5185.000,1.45691,
5184.000,1.46592,
5183.000,1.476,
5182.000,1.48616,
5181.000,1.49526,
5180.000,1.50252,
5179.000,1.50808,
5178.000,1.51295,
5177.000,1.51835,
5176.000,1.52521,
5175.000,1.53382,
5174.000,1.54379,
5173.000,1.55415,
5172.000,1.56385,
5171.000,1.57263,
5170.000,1.58128,
5169.000,1.59068,
5168.000,1.60091,
5167.000,1.6114,
5166.000,1.62193,
5165.000,1.63276,
5164.000,1.64396,
5163.000,1.65511,
5162.000,1.66595,
5161.000,1.67677,
5160.000,1.68788,
5159.000,1.69906,
5158.000,1.71004,
5157.000,1.72119,
5156.000,1.73314,
5155.000,1.74583,
5154.000,1.75846,
5153.000,1.77038,
5152.000,1.78188,
5151.000,1.79384,
5150.000,1.80708,
5149.000,1.82202,
5148.000,1.83862,
5147.000,1.85624,
5146.000,1.87379,
5145.000,1.89026,
5144.000,1.90525,
5143.000,1.91909,
5142.000,1.93248,
5141.000,1.94605,
5140.000,1.96026,
5139.000,1.97557,
5138.000,1.99244,
5137.000,2.0109,
5136.000,2.03,
5135.000,2.04823,
5134.000,2.06472,
5133.000,2.08008,
5132.000,2.09577,
5131.000,2.11267,
5130.000,2.13071,
5129.000,2.14941,
5128.000,2.16846,
5127.000,2.18766,
5126.000,2.20696,
5125.000,2.22668,
5124.000,2.24716,
5123.000,2.26814,
5122.000,2.28885,
5121.000,2.30903,
5120.000,2.32939,
5119.000,2.35088,
5118.000,2.37367,
5117.000,2.39726,
5116.000,2.42095,
5115.000,2.4441,
5114.000,2.46621,
5113.000,2.48746,
5112.000,2.5088,
5111.000,2.53119,
5110.000,2.55479,
5109.000,2.5792,
5108.000,2.60424,
5107.000,2.63007,
5106.000,2.65677,
5105.000,2.68409,
5104.000,2.71177,
5103.000,2.73963,
5102.000,2.76742,
5101.000,2.79485,
5100.000,2.8219,
5099.000,2.84881,
5098.000,2.87582,
5097.000,2.90306,
5096.000,2.93075,
5095.000,2.95917,
5094.000,2.98852,
5093.000,3.01881,
5092.000,3.04983,
5091.000,3.08116,
5090.000,3.1122,
5089.000,3.14253,
5088.000,3.17204,
5087.000,3.20085,
5086.000,3.22929,
5085.000,3.25834,
5084.000,3.28937,
5083.000,3.32318,
5082.000,3.35924,
5081.000,3.39611,
5080.000,3.43253,
5079.000,3.46781,
5078.000,3.5018,
5077.000,3.53502,
5076.000,3.56847,
5075.000,3.60287,
5074.000,3.63792,
5073.000,3.67286,
5072.000,3.70757,
5071.000,3.7429,
5070.000,3.7798,
5069.000,3.8184,
5068.000,3.85795,
5067.000,3.89726,
5066.000,3.93556,
5065.000,3.97321,
5064.000,4.01159,
5063.000,4.05182,
5062.000,4.09356,
5061.000,4.13519,
5060.000,4.17526,
5059.000,4.2135,
5058.000,4.25092,
5057.000,4.2892,
5056.000,4.32987,
5055.000,4.37317,
5054.000,4.41775,
5053.000,4.46186,
5052.000,4.50499,
5051.000,4.54809,
5050.000,4.59222,
5049.000,4.63768,
5048.000,4.68424,
5047.000,4.73162,
5046.000,4.7793,
5045.000,4.8264,
5044.000,4.87234,
5043.000,4.91759,
5042.000,4.96317,
5041.000,5.00955,
5040.000,5.05634,
5039.000,5.10297,
5038.000,5.14951,
5037.000,5.19649,
5036.000,5.24428,
5035.000,5.2931,
5034.000,5.34325,
5033.000,5.39487,
5032.000,5.4474,
5031.000,5.49971,
5030.000,5.55108,
5029.000,5.60188,
5028.000,5.65285,
5027.000,5.70415,
5026.000,5.75563,
5025.000,5.80759,
5024.000,5.86059,
5023.000,5.91445,
5022.000,5.96824,
5021.000,6.02131,
5020.000,6.07393,
5019.000,6.1268,
5018.000,6.18037,
5017.000,6.23493,
5016.000,6.29067,
5015.000,6.34718,
5014.000,6.40332,
5013.000,6.45798,
5012.000,6.511,
5011.000,6.5632,
5010.000,6.61574,
5009.000,6.6695,
5008.000,6.72497,
5007.000,6.78228,
5006.000,6.84121,
5005.000,6.90106,
5004.000,6.96065,
5003.000,7.01875,
5002.000,7.07484,
5001.000,7.12945,
5000.000,7.18336,
4999.000,7.23715,
4998.000,7.29124,
4997.000,7.34592,
4996.000,7.40103,
4995.000,7.4556,
4994.000,7.50874,
4993.000,7.5605,
4992.000,7.61153,
4991.000,7.66233,
4990.000,7.71356,
4989.000,7.76633,
4988.000,7.8213,
4987.000,7.87728,
4986.000,7.93194,
4985.000,7.98377,
4984.000,8.03272,
4983.000,8.07926,
4982.000,8.12389,
4981.000,8.16741,
4980.000,8.21053,
4979.000,8.25273,
4978.000,8.29259,
4977.000,8.32951,
4976.000,8.36434,
4975.000,8.39818,
4974.000,8.43151,
4973.000,8.46448,
4972.000,8.49696,
4971.000,8.52789,
4970.000,8.55577,
4969.000,8.58029,
4968.000,8.60275,
4967.000,8.62446,
4966.000,8.64529,
4965.000,8.66413,
4964.000,8.68007,
4963.000,8.69284,
4962.000,8.70272,
4961.000,8.71051,
4960.000,8.71699,
4959.000,8.72224,
4958.000,8.72583,
4957.000,8.72759,
4956.000,8.72757,
4955.000,8.7253,
4954.000,8.71979,
4953.000,8.7106,
4952.000,8.69826,
4951.000,8.6836,
4950.000,8.66733,
4949.000,8.65021,
4948.000,8.6327,
4947.000,8.61426,
4946.000,8.59379,
4945.000,8.57084,
4944.000,8.54587,
4943.000,8.5193,
4942.000,8.49117,
4941.000,8.46175,
4940.000,8.43142,
4939.000,8.39988,
4938.000,8.36622,
4937.000,8.33039,
4936.000,8.29355,
4935.000,8.25668,
4934.000,8.21935,
4933.000,8.1804,
4932.000,8.13933,
4931.000,8.09662,
4930.000,8.0531,
4929.000,8.00933,
4928.000,7.96523,
4927.000,7.92013,
4926.000,7.87356,
4925.000,7.82606,
4924.000,7.77905,
4923.000,7.73357,
4922.000,7.68942,
4921.000,7.64542,
4920.000,7.60032,
4919.000,7.55351,
4918.000,7.50527,
4917.000,7.45623,
4916.000,7.4067,
4915.000,7.35652,
4914.000,7.30584,
4913.000,7.25542,
4912.000,7.20585,
4911.000,7.15699,
4910.000,7.10843,
4909.000,7.05998,
4908.000,7.0112,
4907.000,6.96121,
4906.000,6.90986,
4905.000,6.85854,
4904.000,6.80889,
4903.000,6.76095,
4902.000,6.71332,
4901.000,6.66488,
4900.000,6.61549,
4899.000,6.5654,
4898.000,6.515,
4897.000,6.46509,
4896.000,6.41627,
4895.000,6.36791,
4894.000,6.31886,
4893.000,6.26897,
4892.000,6.21921,
4891.000,6.17027,
4890.000,6.12184,
4889.000,6.07361,
4888.000,6.02578,
4887.000,5.97838,
4886.000,5.93086,
4885.000,5.88299,
4884.000,5.83526,
4883.000,5.78823,
4882.000,5.74176,
4881.000,5.69545,
4880.000,5.6491,
4879.000,5.60273,
4878.000,5.55646,
4877.000,5.51081,
4876.000,5.46634,
4875.000,5.42268,
4874.000,5.3785,
4873.000,5.33287,
4872.000,5.2863,
4871.000,5.24016,
4870.000,5.1954,
4869.000,5.15214,
4868.000,5.10971,
4867.000,5.06698,
4866.000,5.02317,
4865.000,4.97875,
4864.000,4.93526,
4863.000,4.89348,
4862.000,4.85238,
4861.000,4.81022,
4860.000,4.7665,
4859.000,4.72235,
4858.000,4.67927,
4857.000,4.63791,
4856.000,4.59782,
4855.000,4.55788,
4854.000,4.51698,
4853.000,4.47496,
4852.000,4.43274,
4851.000,4.39152,
4850.000,4.35166,
4849.000,4.3126,
4848.000,4.27377,
4847.000,4.23509,
4846.000,4.19663,
4845.000,4.15819,
4844.000,4.11943,
4843.000,4.08034,
4842.000,4.04127,
4841.000,4.00271,
4840.000,3.96502,
4839.000,3.92824,
4838.000,3.89208,
4837.000,3.85611,
4836.000,3.82008,
4835.000,3.784,
4834.000,3.74815,
4833.000,3.71273,
4832.000,3.67769,
4831.000,3.64272,
4830.000,3.6075,
4829.000,3.57192,
4828.000,3.53615,
4827.000,3.50044,
4826.000,3.46499,
4825.000,3.42996,
4824.000,3.39556,
4823.000,3.36194,
4822.000,3.32922,
4821.000,3.29752,
4820.000,3.26677,
4819.000,3.2366,
4818.000,3.20638,
4817.000,3.17562,
4816.000,3.14413,
4815.000,3.11197,
4814.000,3.07937,
4813.000,3.04676,
4812.000,3.01486,
4811.000,2.98438,
4810.000,2.9556,
4809.000,2.92812,
4808.000,2.90086,
4807.000,2.8725,
4806.000,2.84229,
4805.000,2.81091,
4804.000,2.78026,
4803.000,2.75198,
4802.000,2.72619,
4801.000,2.7017,
4800.000,2.67729,
4799.000,2.65257,
4798.000,2.62776,
4797.000,2.60294,
4796.000,2.57787,
4795.000,2.55222,
4794.000,2.52598,
4793.000,2.49978,
4792.000,2.47464,
4791.000,2.45111,
4790.000,2.42861,
4789.000,2.40596,
4788.000,2.3826,
4787.000,2.35912,
4786.000,2.33635,
4785.000,2.31438,
4784.000,2.29258,
4783.000,2.27031,
4782.000,2.2475,
4781.000,2.22467,
4780.000,2.20272,
4779.000,2.18226,
4778.000,2.16303,
4777.000,2.14393,
4776.000,2.12404,
4775.000,2.10334,
4774.000,2.08257,
4773.000,2.06253,
4772.000,2.04353,
4771.000,2.02522,
4770.000,2.0068,
4769.000,1.98771,
4768.000,1.96831,
4767.000,1.94959,
4766.000,1.932,
4765.000,1.91488,
4764.000,1.89725,
4763.000,1.87889,
4762.000,1.86038,
4761.000,1.84228,
4760.000,1.82477,
4759.000,1.80774,
4758.000,1.79083,
4757.000,1.77374,
4756.000,1.75665,
4755.000,1.74036,
4754.000,1.72532,
4753.000,1.71098,
4752.000,1.69632,
4751.000,1.6809,
4750.000,1.66486,
4749.000,1.64845,
4748.000,1.63208,
4747.000,1.61671,
4746.000,1.60312,
4745.000,1.59081,
4744.000,1.57821,
4743.000,1.56436,
4742.000,1.54963,
4741.000,1.53501,
4740.000,1.52108,
4739.000,1.50786,
4738.000,1.49497,
4737.000,1.48172,
4736.000,1.46753,
4735.000,1.4526,
4734.000,1.43778,
4733.000,1.42361,
4732.000,1.40989,
4731.000,1.39648,
4730.000,1.38383,
4729.000,1.37237,
4728.000,1.36176,
4727.000,1.35122,
4726.000,1.34022,
4725.000,1.3287,
4724.000,1.31689,
4723.000,1.30531,
4722.000,1.29454,
4721.000,1.28457,
4720.000,1.27466,
4719.000,1.26406,
4718.000,1.25289,
4717.000,1.24204,
4716.000,1.23221,
4715.000,1.22321,
4714.000,1.21415,
4713.000,1.20406,
4712.000,1.19273,
4711.000,1.18105,
4710.000,1.17029,
4709.000,1.16089,
4708.000,1.15209,
4707.000,1.14279,
4706.000,1.13272,
4705.000,1.12256,
4704.000,1.11315,
4703.000,1.10482,
4702.000,1.09724,
4701.000,1.08973,
4700.000,1.08179,
4699.000,1.07357,
4698.000,1.0656,
4697.000,1.05811,
4696.000,1.05084,
4695.000,1.04365,
4694.000,1.03676,
4693.000,1.03038,
4692.000,1.02419,
4691.000,1.01768,
4690.000,1.0107,
4689.000,1.00346,
4688.000,0.996143,
4687.000,0.988911,
4686.000,0.982016,
4685.000,0.9757,
4684.000,0.969921,
4683.000,0.964391,
4682.000,0.958822,
4681.000,0.953011,
4680.000,0.946875,
4679.000,0.940638,
4678.000,0.93485,
4677.000,0.929923,
4676.000,0.925674,
4675.000,0.921495,
4674.000,0.916891,
4673.000,0.911775,
4672.000,0.906421,
4671.000,0.901338,
4670.000,0.897144,
4669.000,0.894271,
4668.000,0.892635,
4667.000,0.891536,
4666.000,0.889883,
4665.000,0.886679,
4664.000,0.881652,
4663.000,0.875581,
4662.000,0.869813,
4661.000,0.865237,
4660.000,0.861776,
4659.000,0.858862,
4658.000,0.856208,
4657.000,0.853957,
4656.000,0.852258,
4655.000,0.850925,
4654.000,0.849458,
4653.000,0.847278,
4652.000,0.844093,
4651.000,0.840184,
4650.000,0.836254,
4649.000,0.832826,
4648.000,0.829854,
4647.000,0.827092,
4646.000,0.824678,
4645.000,0.823115,
4644.000,0.822688,
4643.000,0.82309,
4642.000,0.823572,
4641.000,0.823252,
4640.000,0.821403,
4639.000,0.817862,
4638.000,0.813357,
4637.000,0.809212,
4636.000,0.806467,
4635.000,0.805224,
4634.000,0.804815,
4633.000,0.804538,
4632.000,0.804191,
4631.000,0.804004,
4630.000,0.8042,
4629.000,0.804629,
4628.000,0.804794,
4627.000,0.804252,
4626.000,0.803065,
4625.000,0.801864,
4624.000,0.801391,
4623.000,0.801842,
4622.000,0.80267,
4621.000,0.803086,
4620.000,0.802743,
4619.000,0.801909,
4618.000,0.801061,
4617.000,0.800442,
4616.000,0.800054,
4615.000,0.799886,
4614.000,0.799992,
4613.000,0.800391,
4612.000,0.801007,
4611.000,0.801735,
4610.000,0.802505,
4609.000,0.803319,
4608.000,0.804286,
4607.000,0.805509,
4606.000,0.806807,
4605.000,0.807658,
4604.000,0.807629,
4603.000,0.806862,
4602.000,0.806005,
4601.000,0.805653,
4600.000,0.805984,
4599.000,0.806903,
4598.000,0.808256,
4597.000,0.809802,
4596.000,0.811207,
4595.000,0.812364,
4594.000,0.813718,
4593.000,0.816014,
4592.000,0.819589,
4591.000,0.823903,
4590.000,0.827797,
4589.000,0.830288,
4588.000,0.831257,
4587.000,0.831498,
4586.000,0.83215,
4585.000,0.833952,
4584.000,0.836871,
4583.000,0.840332,
4582.000,0.843785,
4581.000,0.846994,
4580.000,0.849881,
4579.000,0.852404,
4578.000,0.854758,
4577.000,0.857508,
4576.000,0.861146,
4575.000,0.865386,
4574.000,0.869198,
4573.000,0.871737,
4572.000,0.873159,
4571.000,0.874427,
4570.000,0.876439,
4569.000,0.879444,
4568.000,0.883156,
4567.000,0.887139,
4566.000,0.891144,
4565.000,0.895294,
4564.000,0.899926,
4563.000,0.905085,
4562.000,0.910253,
4561.000,0.914812,
4560.000,0.918739,
4559.000,0.922669,
4558.000,0.927289,
4557.000,0.93281,
4556.000,0.938973,
4555.000,0.945256,
4554.000,0.951082,
4553.000,0.956149,
4552.000,0.960697,
4551.000,0.965276,
4550.000,0.970249,
4549.000,0.975738,
4548.000,0.981928,
4547.000,0.989002,
4546.000,0.996733,
4545.000,1.00453,
4544.000,1.0121,
4543.000,1.01973,
4542.000,1.02777,
4541.000,1.03612,
4540.000,1.04446,
4539.000,1.05262,
4538.000,1.06048,
4537.000,1.06795,
4536.000,1.07518,
4535.000,1.08278,
4534.000,1.0912,
4533.000,1.10021,
4532.000,1.10903,
4531.000,1.11714,
4530.000,1.1247,
4529.000,1.13245,
4528.000,1.14129,
4527.000,1.15153,
4526.000,1.16247,
4525.000,1.17289,
4524.000,1.18224,
4523.000,1.19123,
4522.000,1.20102,
4521.000,1.21202,
4520.000,1.22374,
4519.000,1.23559,
4518.000,1.24729,
4517.000,1.25869,
4516.000,1.26976,
4515.000,1.28085,
4514.000,1.29276,
4513.000,1.3062,
4512.000,1.32118,
4511.000,1.33702,
4510.000,1.35267,
4509.000,1.36721,
4508.000,1.38041,
4507.000,1.39291,
4506.000,1.40574,
4505.000,1.41963,
4504.000,1.43465,
4503.000,1.45041,
4502.000,1.46631,
4501.000,1.48172,
4500.000,1.49631,
4499.000,1.51046,
4498.000,1.52507,
4497.000,1.54092,
4496.000,1.55809,
4495.000,1.57602,
4494.000,1.59404,
4493.000,1.61191,
4492.000,1.62999,
4491.000,1.64876,
4490.000,1.66828,
4489.000,1.68792,
4488.000,1.70702,
4487.000,1.72557,
4486.000,1.74431,
4485.000,1.76397,
4484.000,1.78468,
4483.000,1.80599,
4482.000,1.8273,
4481.000,1.8482,
4480.000,1.86853,
4479.000,1.88847,
4478.000,1.90854,
4477.000,1.92952,
4476.000,1.95204,
4475.000,1.97607,
4474.000,2.00075,
4473.000,2.02491,
4472.000,2.048,
4471.000,2.0706,
4470.000,2.09388,
4469.000,2.11857,
4468.000,2.14443,
4467.000,2.17064,
4466.000,2.19648,
4465.000,2.22181,
4464.000,2.24701,
4463.000,2.27271,
4462.000,2.29931,
4461.000,2.32683,
4460.000,2.35499,
4459.000,2.38356,
4458.000,2.4125,
4457.000,2.44186,
4456.000,2.47149,
4455.000,2.50108,
4454.000,2.5303,
4453.000,2.55894,
4452.000,2.58708,
4451.000,2.61517,
4450.000,2.64403,
4449.000,2.67446,
4448.000,2.70672,
4447.000,2.74038,
4446.000,2.77457,
4445.000,2.80848,
4444.000,2.84165,
4443.000,2.87398,
4442.000,2.90578,
4441.000,2.93761,
4440.000,2.97018,
4439.000,3.00395,
4438.000,3.03877,
4437.000,3.07388,
4436.000,3.10847,
4435.000,3.1424,
4434.000,3.1764,
4433.000,3.21145,
4432.000,3.24795,
4431.000,3.28556,
4430.000,3.32366,
4429.000,3.36182,
4428.000,3.39979,
4427.000,3.43727,
4426.000,3.47421,
4425.000,3.51114,
4424.000,3.54898,
4423.000,3.58827,
4422.000,3.62867,
4421.000,3.66921,
4420.000,3.70916,
4419.000,3.74849,
4418.000,3.78768,
4417.000,3.82718,
4416.000,3.86711,
4415.000,3.90747,
4414.000,3.94832,
4413.000,3.98959,
4412.000,4.03079,
4411.000,4.07126,
4410.000,4.111,
4409.000,4.151,
4408.000,4.19264,
4407.000,4.23645,
4406.000,4.28158,
4405.000,4.32642,
4404.000,4.36973,
4403.000,4.41128,
4402.000,4.45182,
4401.000,4.49236,
4400.000,4.53351,
4399.000,4.57529,
4398.000,4.61745,
4397.000,4.65979,
4396.000,4.70223,
4395.000,4.7447,
4394.000,4.7871,
4393.000,4.82936,
4392.000,4.87139,
4391.000,4.91299,
4390.000,4.95413,
4389.000,4.99501,
4388.000,5.03595,
4387.000,5.07712,
4386.000,5.11855,
4385.000,5.16017,
4384.000,5.2018,
4383.000,5.24307,
4382.000,5.28357,
4381.000,5.32307,
4380.000,5.36144,
4379.000,5.39866,
4378.000,5.43498,
4377.000,5.47103,
4376.000,5.5074,
4375.000,5.54421,
4374.000,5.58123,
4373.000,5.61811,
4372.000,5.65445,
4371.000,5.68981,
4370.000,5.72413,
4369.000,5.75805,
4368.000,5.79244,
4367.000,5.8276,
4366.000,5.86304,
4365.000,5.898,
4364.000,5.93204,
4363.000,5.96532,
4362.000,5.99844,
4361.000,6.03208,
4360.000,6.06632,
4359.000,6.10048,
4358.000,6.13373,
4357.000,6.16578,
4356.000,6.19673,
4355.000,6.22638,
4354.000,6.25404,
4353.000,6.27911,
4352.000,6.3015,
4351.000,6.32148,
4350.000,6.33941,
4349.000,6.3555,
4348.000,6.36973,
4347.000,6.3822,
4346.000,6.39349,
4345.000,6.40452,
4344.000,6.4157,
4343.000,6.42636,
4342.000,6.43511,
4341.000,6.44099,
4340.000,6.44386,
4339.000,6.44414,
4338.000,6.44248,
4337.000,6.43947,
4336.000,6.43536,
4335.000,6.42979,
4334.000,6.42215,
4333.000,6.41212,
4332.000,6.3997,
4331.000,6.38475,
4330.000,6.36704,
4329.000,6.34669,
4328.000,6.3243,
4327.000,6.30058,
4326.000,6.27583,
4325.000,6.24981,
4324.000,6.22194,
4323.000,6.19163,
4322.000,6.15872,
4321.000,6.1237,
4320.000,6.08749,
4319.000,6.0508,
4318.000,6.01386,
4317.000,5.97645,
4316.000,5.93818,
4315.000,5.89867,
4314.000,5.85799,
4313.000,5.8167,
4312.000,5.77559,
4311.000,5.73501,
4310.000,5.69471,
4309.000,5.65415,
4308.000,5.61296,
4307.000,5.5712,
4306.000,5.52926,
4305.000,5.48751,
4304.000,5.44591,
4303.000,5.40391,
4302.000,5.36098,
4301.000,5.31719,
4300.000,5.27319,
4299.000,5.22947,
4298.000,5.18596,
4297.000,5.14227,
4296.000,5.09833,
4295.000,5.05445,
4294.000,5.0109,
4293.000,4.9674,
4292.000,4.92325,
4291.000,4.87798,
4290.000,4.83187,
4289.000,4.78582,
4288.000,4.7406,
4287.000,4.69638,
4286.000,4.65281,
4285.000,4.60968,
4284.000,4.56716,
4283.000,4.52561,
4282.000,4.48514,
4281.000,4.44544,
4280.000,4.40615,
4279.000,4.36707,
4278.000,4.32822,
4277.000,4.28969,
4276.000,4.25153,
4275.000,4.2138,
4274.000,4.17648,
4273.000,4.13948,
4272.000,4.10273,
4271.000,4.06626,
4270.000,4.03021,
4269.000,3.99461,
4268.000,3.95919,
4267.000,3.9235,
4266.000,3.8873,
4265.000,3.85071,
4264.000,3.8142,
4263.000,3.77819,
4262.000,3.74277,
4261.000,3.70773,
4260.000,3.67286,
4259.000,3.63828,
4258.000,3.60436,
4257.000,3.57141,
4256.000,3.53939,
4255.000,3.5078,
4254.000,3.47592,
4253.000,3.44313,
4252.000,3.4093,
4251.000,3.37496,
4250.000,3.34084,
4249.000,3.3072,
4248.000,3.27359,
4247.000,3.23942,
4246.000,3.20462,
4245.000,3.16982,
4244.000,3.13575,
4243.000,3.10256,
4242.000,3.06981,
4241.000,3.03699,
4240.000,3.0041,
4239.000,2.97154,
4238.000,2.93949,
4237.000,2.90761,
4236.000,2.8753,
4235.000,2.84234,
4234.000,2.809,
4233.000,2.77577,
4232.000,2.74309,
4231.000,2.71134,
4230.000,2.68076,
4229.000,2.65123,
4228.000,2.62222,
4227.000,2.59309,
4226.000,2.56336,
4225.000,2.53289,
4224.000,2.5018,
4223.000,2.47059,
4222.000,2.43998,
4221.000,2.41059,
4220.000,2.38257,
4219.000,2.35544,
4218.000,2.32847,
4217.000,2.30125,
4216.000,2.2741,
4215.000,2.24788,
4214.000,2.22323,
4213.000,2.19978,
4212.000,2.17635,
4211.000,2.1519,
4210.000,2.12642,
4209.000,2.10088,
4208.000,2.07634,
4207.000,2.05317,
4206.000,2.03098,
4205.000,2.00932,
4204.000,1.98817,
4203.000,1.96759,
4202.000,1.9471,
4201.000,1.92557,
4200.000,1.90228,
4199.000,1.87785,
4198.000,1.85391,
4197.000,1.83171,
4196.000,1.8112,
4195.000,1.79145,
4194.000,1.77159,
4193.000,1.75131,
4192.000,1.73085,
4191.000,1.71058,
4190.000,1.69077,
4189.000,1.67143,
4188.000,1.65237,
4187.000,1.63349,
4186.000,1.61493,
4185.000,1.59693,
4184.000,1.57954,
4183.000,1.56243,
4182.000,1.54519,
4181.000,1.52762,
4180.000,1.50988,
4179.000,1.49227,
4178.000,1.47505,
4177.000,1.45831,
4176.000,1.44204,
4175.000,1.42604,
4174.000,1.41008,
4173.000,1.39417,
4172.000,1.37885,
4171.000,1.36474,
4170.000,1.35172,
4169.000,1.3386,
4168.000,1.32409,
4167.000,1.30802,
4166.000,1.29163,
4165.000,1.27636,
4164.000,1.26254,
4163.000,1.24926,
4162.000,1.23536,
4161.000,1.22057,
4160.000,1.20568,
4159.000,1.19186,
4158.000,1.17958,
4157.000,1.16827,
4156.000,1.15679,
4155.000,1.14433,
4154.000,1.13084,
4153.000,1.11697,
4152.000,1.10358,
4151.000,1.09119,
4150.000,1.07965,
4149.000,1.0683,
4148.000,1.05668,
4147.000,1.04495,
4146.000,1.03363,
4145.000,1.0229,
4144.000,1.01241,
4143.000,1.00161,
4142.000,0.990323,
4141.000,0.978708,
4140.000,0.966977,
4139.000,0.955246,
4138.000,0.943703,
4137.000,0.932766,
4136.000,0.92293,
4135.000,0.914317,
4134.000,0.906344,
4133.000,0.897973,
4132.000,0.888507,
4131.000,0.878172,
4130.000,0.867871,
4129.000,0.85829,
4128.000,0.849268,
4127.000,0.84009,
4126.000,0.830307,
4125.000,0.820282,
4124.000,0.810899,
4123.000,0.802774,
4122.000,0.795742,
4121.000,0.78907,
4120.000,0.782137,
4119.000,0.774857,
4118.000,0.76753,
4117.000,0.760432,
4116.000,0.75358,
4115.000,0.746784,
4114.000,0.739783,
4113.000,0.732419,
4112.000,0.724809,
4111.000,0.717343,
4110.000,0.710426,
4109.000,0.704215,
4108.000,0.698574,
4107.000,0.693204,
4106.000,0.687728,
4105.000,0.681806,
4104.000,0.675343,
4103.000,0.668606,
4102.000,0.662024,
4101.000,0.655879,
4100.000,0.650203,
4099.000,0.64492,
4098.000,0.639972,
4097.000,0.63527,
4096.000,0.630711,
4095.000,0.626313,
4094.000,0.622199,
4093.000,0.618348,
4092.000,0.614438,
4091.000,0.610082,
4090.000,0.605296,
4089.000,0.600569,
4088.000,0.596364,
4087.000,0.592552,
4086.000,0.58848,
4085.000,0.583741,
4084.000,0.578714,
4083.000,0.574239,
4082.000,0.57075,
4081.000,0.567878,
4080.000,0.564935,
4079.000,0.561615,
4078.000,0.558176,
4077.000,0.555022,
4076.000,0.552234,
4075.000,0.549513,
4074.000,0.546551,
4073.000,0.543441,
4072.000,0.540641,
4071.000,0.538483,
4070.000,0.536671,
4069.000,0.53446,
4068.000,0.5314,
4067.000,0.52778,
4066.000,0.52426,
4065.000,0.52113,
4064.000,0.518148,
4063.000,0.515001,
4062.000,0.511725,
4061.000,0.508633,
4060.000,0.505973,
4059.000,0.503786,
4058.000,0.50199,
4057.000,0.50045,
4056.000,0.498971,
4055.000,0.497329,
4054.000,0.495408,
4053.000,0.493347,
4052.000,0.491436,
4051.000,0.489799,
4050.000,0.488215,
4049.000,0.486316,
4048.000,0.484019,
4047.000,0.481657,
4046.000,0.479684,
4045.000,0.478329,
4044.000,0.477572,
4043.000,0.477325,
4042.000,0.477451,
4041.000,0.477603,
4040.000,0.477271,
4039.000,0.476099,
4038.000,0.474149,
4037.000,0.471831,
4036.000,0.469603,
4035.000,0.467782,
4034.000,0.466532,
4033.000,0.465857,
4032.000,0.465574,
4031.000,0.465404,
4030.000,0.465203,
4029.000,0.465088,
4028.000,0.465214,
4027.000,0.465389,
4026.000,0.46503,
4025.000,0.463639,
4024.000,0.461293,
4023.000,0.458617,
4022.000,0.456302,
4021.000,0.454711,
4020.000,0.453838,
4019.000,0.453403,
4018.000,0.452982,
4017.000,0.45222,
4016.000,0.451138,
4015.000,0.450166,
4014.000,0.449739,
4013.000,0.449853,
4012.000,0.450106,
4011.000,0.450138,
4010.000,0.44994,
4009.000,0.449769,
4008.000,0.449915,
4007.000,0.450506,
4006.000,0.451367,
4005.000,0.452044,
4004.000,0.452159,
4003.000,0.451858,
4002.000,0.45177,
4001.000,0.452351,
4000.000,0.45334,
3999.000,0.454055,
3998.000,0.45423,
3997.000,0.454296,
3996.000,0.454772,
3995.000,0.455603,
3994.000,0.456252,
3993.000,0.456348,
3992.000,0.456055,
3991.000,0.455817,
3990.000,0.45589,
3989.000,0.456203,
3988.000,0.45654,
3987.000,0.456766,
3986.000,0.45689,
3985.000,0.457023,
3984.000,0.457316,
3983.000,0.457897,
3982.000,0.458809,
3981.000,0.459949,
3980.000,0.461058,
3979.000,0.4619,
3978.000,0.462507,
3977.000,0.463191,
3976.000,0.464216,
3975.000,0.465516,
3974.000,0.466846,
3973.000,0.46814,
3972.000,0.469516,
3971.000,0.470901,
3970.000,0.471902,
3969.000,0.47231,
3968.000,0.472602,
3967.000,0.473598,
3966.000,0.475503,
3965.000,0.477494,
3964.000,0.478528,
3963.000,0.478512,
3962.000,0.478447,
3961.000,0.479426,
3960.000,0.481668,
3959.000,0.484593,
3958.000,0.487563,
3957.000,0.490298,
3956.000,0.492695,
3955.000,0.494641,
3954.000,0.496154,
3953.000,0.497543,
3952.000,0.499235,
3951.000,0.501454,
3950.000,0.504108,
3949.000,0.506914,
3948.000,0.509579,
3947.000,0.511963,
3946.000,0.514182,
3945.000,0.516498,
3944.000,0.519005,
3943.000,0.521441,
3942.000,0.523451,
3941.000,0.525073,
3940.000,0.526846,
3939.000,0.529317,
3938.000,0.532481,
3937.000,0.535749,
3936.000,0.538533,
3935.000,0.540859,
3934.000,0.543341,
3933.000,0.546479,
3932.000,0.550031,
3931.000,0.553244,
3930.000,0.555749,
3929.000,0.558104,
3928.000,0.561368,
3927.000,0.56613,
3926.000,0.571915,
3925.000,0.577443,
3924.000,0.581581,
3923.000,0.584336,
3922.000,0.586908,
3921.000,0.590607,
3920.000,0.595713,
3919.000,0.601373,
3918.000,0.606467,
3917.000,0.6105,
3916.000,0.613787,
3915.000,0.617109,
3914.000,0.621228,
3913.000,0.626403,
3912.000,0.632185,
3911.000,0.637862,
3910.000,0.643244,
3909.000,0.648833,
3908.000,0.655113,
3907.000,0.661932,
3906.000,0.668755,
3905.000,0.675307,
3904.000,0.681785,
3903.000,0.688524,
3902.000,0.695651,
3901.000,0.702925,
3900.000,0.709691,
3899.000,0.715192,
3898.000,0.719342,
3897.000,0.723168,
3896.000,0.728211,
3895.000,0.735426,
3894.000,0.744711,
3893.000,0.755168,
3892.000,0.765499,
3891.000,0.77452,
3890.000,0.781949,
3889.000,0.788919,
3888.000,0.797253,
3887.000,0.807812,
3886.000,0.819461,
3885.000,0.82987,
3884.000,0.837918,
3883.000,0.845007,
3882.000,0.853474,
3881.000,0.864089,
3880.000,0.875423,
3879.000,0.885538,
3878.000,0.894155,
3877.000,0.902847,
3876.000,0.913254,
3875.000,0.925557,
3874.000,0.938731,
3873.000,0.951969,
3872.000,0.965438,
3871.000,0.979385,
3870.000,0.993,
3869.000,1.0049,
3868.000,1.01503,
3867.000,1.02521,
3866.000,1.03737,
3865.000,1.05157,
3864.000,1.06628,
3863.000,1.08012,
3862.000,1.09312,
3861.000,1.10609,
3860.000,1.1196,
3859.000,1.13423,
3858.000,1.1509,
3857.000,1.17065,
3856.000,1.19381,
3855.000,1.21891,
3854.000,1.24173,
3853.000,1.25675,
3852.000,1.26249,
3851.000,1.26431,
3850.000,1.26936,
3849.000,1.28118,
3848.000,1.29951,
3847.000,1.32232,
3846.000,1.34756,
3845.000,1.37378,
3844.000,1.3999,
3843.000,1.42519,
3842.000,1.44925,
3841.000,1.4721,
3840.000,1.4939,
3839.000,1.51457,
3838.000,1.53359,
3837.000,1.55063,
3836.000,1.56653,
3835.000,1.5834,
3834.000,1.60338,
3833.000,1.62697,
3832.000,1.65262,
3831.000,1.67813,
3830.000,1.70264,
3829.000,1.72713,
3828.000,1.75274,
3827.000,1.77942,
3826.000,1.80613,
3825.000,1.83252,
3824.000,1.85986,
3823.000,1.88974,
3822.000,1.92121,
3821.000,1.94999,
3820.000,1.97251,
3819.000,1.99116,
3818.000,2.01253,
3817.000,2.04039,
3816.000,2.07192,
3815.000,2.10091,
3814.000,2.12514,
3813.000,2.14852,
3812.000,2.17567,
3811.000,2.20735,
3810.000,2.24191,
3809.000,2.2779,
3808.000,2.31404,
3807.000,2.34796,
3806.000,2.37752,
3805.000,2.40422,
3804.000,2.43295,
3803.000,2.46702,
3802.000,2.50427,
3801.000,2.53851,
3800.000,2.56606,
3799.000,2.59033,
3798.000,2.61787,
3797.000,2.65141,
3796.000,2.68846,
3795.000,2.72515,
3794.000,2.76028,
3793.000,2.79529,
3792.000,2.83128,
3791.000,2.86778,
3790.000,2.904,
3789.000,2.94002,
3788.000,2.97626,
3787.000,3.01282,
3786.000,3.04966,
3785.000,3.08675,
3784.000,3.12383,
3783.000,3.16059,
3782.000,3.19747,
3781.000,3.23552,
3780.000,3.27493,
3779.000,3.3145,
3778.000,3.3532,
3777.000,3.39144,
3776.000,3.43029,
3775.000,3.46987,
3774.000,3.50934,
3773.000,3.5483,
3772.000,3.58748,
3771.000,3.6276,
3770.000,3.66787,
3769.000,3.70685,
3768.000,3.74483,
3767.000,3.78393,
3766.000,3.82523,
3765.000,3.86713,
3764.000,3.90738,
3763.000,3.9462,
3762.000,3.98629,
3761.000,4.02909,
3760.000,4.07265,
3759.000,4.11391,
3758.000,4.15236,
3757.000,4.18965,
3756.000,4.22668,
3755.000,4.26332,
3754.000,4.29969,
3753.000,4.33589,
3752.000,4.37116,
3751.000,4.40501,
3750.000,4.439,
3749.000,4.47472,
3748.000,4.5105,
3747.000,4.54403,
3746.000,4.5759,
3745.000,4.60803,
3744.000,4.63976,
3743.000,4.66768,
3742.000,4.69169,
3741.000,4.71492,
3740.000,4.73678,
3739.000,4.75365,
3738.000,4.76487,
3737.000,4.77395,
3736.000,4.78397,
3735.000,4.79439,
3734.000,4.80326,
3733.000,4.81006,
3732.000,4.81505,
3731.000,4.81783,
3730.000,4.818,
3729.000,4.81579,
3728.000,4.81154,
3727.000,4.80511,
3726.000,4.79561,
3725.000,4.78216,
3724.000,4.76529,
3723.000,4.74686,
3722.000,4.7282,
3721.000,4.70917,
3720.000,4.68888,
3719.000,4.66681,
3718.000,4.64266,
3717.000,4.6158,
3716.000,4.58531,
3715.000,4.55139,
3714.000,4.5155,
3713.000,4.47899,
3712.000,4.44252,
3711.000,4.40694,
3710.000,4.37357,
3709.000,4.34233,
3708.000,4.3109,
3707.000,4.27709,
3706.000,4.24019,
3705.000,4.20056,
3704.000,4.15898,
3703.000,4.11643,
3702.000,4.07363,
3701.000,4.03064,
3700.000,3.98712,
3699.000,3.94301,
3698.000,3.89839,
3697.000,3.85305,
3696.000,3.80654,
3695.000,3.75909,
3694.000,3.71165,
3693.000,3.66459,
3692.000,3.61714,
3691.000,3.56855,
3690.000,3.51945,
3689.000,3.47187,
3688.000,3.42806,
3687.000,3.38859,
3686.000,3.3519,
3685.000,3.31549,
3684.000,3.27726,
3683.000,3.23661,
3682.000,3.19449,
3681.000,3.15219,
3680.000,3.11025,
3679.000,3.06841,
3678.000,3.02621,
3677.000,2.98355,
3676.000,2.94081,
3675.000,2.89887,
3674.000,2.85902,
3673.000,2.82176,
3672.000,2.78604,
3671.000,2.75026,
3670.000,2.71353,
3669.000,2.67621,
3668.000,2.63992,
3667.000,2.60582,
3666.000,2.57328,
3665.000,2.54064,
3664.000,2.50684,
3663.000,2.47199,
3662.000,2.43694,
3661.000,2.40233,
3660.000,2.36839,
3659.000,2.33519,
3658.000,2.30261,
3657.000,2.27024,
3656.000,2.23786,
3655.000,2.2059,
3654.000,2.17518,
3653.000,2.14583,
3652.000,2.11698,
3651.000,2.08736,
3650.000,2.05628,
3649.000,2.02463,
3648.000,1.99499,
3647.000,1.96919,
3646.000,1.94596,
3645.000,1.92248,
3644.000,1.89727,
3643.000,1.87106,
3642.000,1.84535,
3641.000,1.82076,
3640.000,1.79685,
3639.000,1.77302,
3638.000,1.74898,
3637.000,1.72471,
3636.000,1.70059,
3635.000,1.67719,
3634.000,1.65479,
3633.000,1.633,
3632.000,1.61145,
3631.000,1.5903,
3630.000,1.56961,
3629.000,1.5488,
3628.000,1.52756,
3627.000,1.50702,
3626.000,1.48844,
3625.000,1.47141,
3624.000,1.45433,
3623.000,1.43623,
3622.000,1.4174,
3621.000,1.39869,
3620.000,1.38071,
3619.000,1.36359,
3618.000,1.34719,
3617.000,1.33109,
3616.000,1.3149,
3615.000,1.29855,
3614.000,1.28225,
3613.000,1.26624,
3612.000,1.25074,
3611.000,1.23598,
3610.000,1.22183,
3609.000,1.20777,
3608.000,1.19337,
3607.000,1.1786,
3606.000,1.16364,
3605.000,1.14845,
3604.000,1.13306,
3603.000,1.11789,
3602.000,1.10349,
3601.000,1.09012,
3600.000,1.07765,
3599.000,1.06564,
3598.000,1.05338,
3597.000,1.04028,
3596.000,1.02642,
3595.000,1.0126,
3594.000,0.999642,
3593.000,0.987662,
3592.000,0.976363,
3591.000,0.965496,
3590.000,0.954853,
3589.000,0.944099,
3588.000,0.932949,
3587.000,0.921427,
3586.000,0.909794,
3585.000,0.898257,
3584.000,0.886928,
3583.000,0.875908,
3582.000,0.865178,
3581.000,0.854669,
3580.000,0.844482,
3579.000,0.834692,
3578.000,0.824999,
3577.000,0.815015,
3576.000,0.804883,
3575.000,0.79506,
3574.000,0.785438,
3573.000,0.775332,
3572.000,0.764561,
3571.000,0.753902,
3570.000,0.744245,
3569.000,0.735728,
3568.000,0.727913,
3567.000,0.720262,
3566.000,0.712232,
3565.000,0.703435,
3564.000,0.694121,
3563.000,0.685111,
3562.000,0.676864,
3561.000,0.668999,
3560.000,0.661055,
3559.000,0.653172,
3558.000,0.645601,
3557.000,0.638043,
3556.000,0.630049,
3555.000,0.621739,
3554.000,0.613569,
3553.000,0.605571,
3552.000,0.597356,
3551.000,0.588782,
3550.000,0.580245,
3549.000,0.572357,
3548.000,0.565528,
3547.000,0.559688,
3546.000,0.554202,
3545.000,0.548315,
3544.000,0.541898,
3543.000,0.535492,
3542.000,0.529445,
3541.000,0.523389,
3540.000,0.516814,
3539.000,0.509801,
3538.000,0.502893,
3537.000,0.496472,
3536.000,0.490559,
3535.000,0.484979,
3534.000,0.479498,
3533.000,0.474007,
3532.000,0.468796,
3531.000,0.464364,
3530.000,0.460731,
3529.000,0.457201,
3528.000,0.453074,
3527.000,0.448289,
3526.000,0.443142,
3525.000,0.437758,
3524.000,0.432228,
3523.000,0.426968,
3522.000,0.422452,
3521.000,0.418668,
3520.000,0.415184,
3519.000,0.411657,
3518.000,0.408026,
3517.000,0.404348,
3516.000,0.400729,
3515.000,0.397284,
3514.000,0.393926,
3513.000,0.390327,
3512.000,0.386331,
3511.000,0.382258,
3510.000,0.378586,
3509.000,0.375385,
3508.000,0.372299,
3507.000,0.368994,
3506.000,0.365474,
3505.000,0.362008,
3504.000,0.358909,
3503.000,0.356311,
3502.000,0.35403,
3501.000,0.351703,
3500.000,0.34913,
3499.000,0.346399,
3498.000,0.343676,
3497.000,0.340998,
3496.000,0.338318,
3495.000,0.335591,
3494.000,0.332828,
3493.000,0.330183,
3492.000,0.327947,
3491.000,0.326226,
3490.000,0.32466,
3489.000,0.322766,
3488.000,0.320565,
3487.000,0.318544,
3486.000,0.316889,
3485.000,0.315112,
3484.000,0.312622,
3483.000,0.309458,
3482.000,0.306282,
3481.000,0.303774,
3480.000,0.302094,
3479.000,0.300813,
3478.000,0.299332,
3477.000,0.297469,
3476.000,0.295626,
3475.000,0.294244,
3474.000,0.293201,
3473.000,0.291951,
3472.000,0.290152,
3471.000,0.287866,
3470.000,0.285316,
3469.000,0.282877,
3468.000,0.281198,
3467.000,0.280789,
3466.000,0.281321,
3465.000,0.281715,
3464.000,0.281087,
3463.000,0.279401,
3462.000,0.277189,
3461.000,0.275004,
3460.000,0.27319,
3459.000,0.271754,
3458.000,0.270349,
3457.000,0.268696,
3456.000,0.267088,
3455.000,0.266134,
3454.000,0.265968,
3453.000,0.266057,
3452.000,0.265854,
3451.000,0.265214,
3450.000,0.26409,
3449.000,0.262362,
3448.000,0.260218,
3447.000,0.258299,
3446.000,0.257148,
3445.000,0.256725,
3444.000,0.256627,
3443.000,0.256508,
3442.000,0.256129,
3441.000,0.255326,
3440.000,0.254163,
3439.000,0.252883,
3438.000,0.251601,
3437.000,0.250271,
3436.000,0.249017,
3435.000,0.248175,
3434.000,0.247879,
3433.000,0.247895,
3432.000,0.247933,
3431.000,0.247789,
3430.000,0.247159,
3429.000,0.245806,
3428.000,0.244097,
3427.000,0.242929,
3426.000,0.242848,
3425.000,0.243545,
3424.000,0.244387,
3423.000,0.244999,
3422.000,0.245105,
3421.000,0.244366,
3420.000,0.242831,
3419.000,0.241257,
3418.000,0.240427,
3417.000,0.240308,
3416.000,0.240253,
3415.000,0.239842,
3414.000,0.239173,
3413.000,0.238468,
3412.000,0.237849,
3411.000,0.237455,
3410.000,0.237407,
3409.000,0.237515,
3408.000,0.237285,
3407.000,0.236336,
3406.000,0.234791,
3405.000,0.23323,
3404.000,0.232319,
3403.000,0.232401,
3402.000,0.233302,
3401.000,0.234553,
3400.000,0.235797,
3399.000,0.236895,
3398.000,0.237711,
3397.000,0.238022,
3396.000,0.237738,
3395.000,0.237064,
3394.000,0.236322,
3393.000,0.235712,
3392.000,0.235322,
3391.000,0.235225,
3390.000,0.235471,
3389.000,0.236056,
3388.000,0.236915,
3387.000,0.237872,
3386.000,0.238646,
3385.000,0.23911,
3384.000,0.239555,
3383.000,0.240497,
3382.000,0.242154,
3381.000,0.244154,
3380.000,0.24576,
3379.000,0.246319,
3378.000,0.245645,
3377.000,0.244186,
3376.000,0.242796,
3375.000,0.242133,
3374.000,0.242285,
3373.000,0.243017,
3372.000,0.244105,
3371.000,0.245193,
3370.000,0.245635,
3369.000,0.24499,
3368.000,0.243676,
3367.000,0.2427,
3366.000,0.242691,
3365.000,0.243555,
3364.000,0.24498,
3363.000,0.24674,
3362.000,0.248456,
3361.000,0.249596,
3360.000,0.250019,
3359.000,0.25019,
3358.000,0.250636,
3357.000,0.251436,
3356.000,0.252388,
3355.000,0.253343,
3354.000,0.254139,
3353.000,0.254512,
3352.000,0.254366,
3351.000,0.254015,
3350.000,0.253973,
3349.000,0.254559,
3348.000,0.255736,
3347.000,0.257131,
3346.000,0.258192,
3345.000,0.258554,
3344.000,0.258396,
3343.000,0.258274,
3342.000,0.258569,
3341.000,0.259282,
3340.000,0.260362,
3339.000,0.261941,
3338.000,0.264131,
3337.000,0.266765,
3336.000,0.269359,
3335.000,0.271238,
3334.000,0.271863,
3333.000,0.271424,
3332.000,0.271069,
3331.000,0.272039,
3330.000,0.274433,
3329.000,0.277163,
3328.000,0.279196,
3327.000,0.280494,
3326.000,0.281593,
3325.000,0.2827,
3324.000,0.283561,
3323.000,0.284018,
3322.000,0.284366,
3321.000,0.285187,
3320.000,0.286883,
3319.000,0.289246,
3318.000,0.291491,
3317.000,0.292947,
3316.000,0.293742,
3315.000,0.294587,
3314.000,0.295923,
3313.000,0.297591,
3312.000,0.299292,
3311.000,0.300938,
3310.000,0.30246,
3309.000,0.303737,
3308.000,0.304924,
3307.000,0.30645,
3306.000,0.308455,
3305.000,0.310572,
3304.000,0.312513,
3303.000,0.314511,
3302.000,0.316888,
3301.000,0.3195,
3300.000,0.321978,
3299.000,0.324304,
3298.000,0.32682,
3297.000,0.329783,
3296.000,0.333143,
3295.000,0.33665,
3294.000,0.339996,
3293.000,0.342935,
3292.000,0.345457,
3291.000,0.347769,
3290.000,0.350033,
3289.000,0.352287,
3288.000,0.354695,
3287.000,0.357631,
3286.000,0.361303,
3285.000,0.365446,
3284.000,0.369556,
3283.000,0.373335,
3282.000,0.376808,
3281.000,0.38012,
3280.000,0.383362,
3279.000,0.38652,
3278.000,0.389569,
3277.000,0.392702,
3276.000,0.396325,
3275.000,0.400614,
3274.000,0.405165,
3273.000,0.409415,
3272.000,0.413398,
3271.000,0.41765,
3270.000,0.422377,
3269.000,0.427215,
3268.000,0.431893,
3267.000,0.436636,
3266.000,0.441678,
3265.000,0.446895,
3264.000,0.452243,
3263.000,0.458112,
3262.000,0.464757,
3261.000,0.471724,
3260.000,0.478278,
3259.000,0.484215,
3258.000,0.489878,
3257.000,0.495592,
3256.000,0.501452,
3255.000,0.507538,
3254.000,0.513932,
3253.000,0.520585,
3252.000,0.527465,
3251.000,0.534726,
3250.000,0.542437,
3249.000,0.550288,
3248.000,0.557861,
3247.000,0.56515,
3246.000,0.572554,
3245.000,0.580404,
3244.000,0.588734,
3243.000,0.597384,
3242.000,0.606074,
3241.000,0.614502,
3240.000,0.622654,
3239.000,0.630961,
3238.000,0.639859,
3237.000,0.649261,
3236.000,0.658752,
3235.000,0.668237,
3234.000,0.678104,
3233.000,0.688735,
3232.000,0.70009,
3231.000,0.711846,
3230.000,0.723719,
3229.000,0.735587,
3228.000,0.747463,
3227.000,0.759394,
3226.000,0.771384,
3225.000,0.783435,
3224.000,0.795703,
3223.000,0.808472,
3222.000,0.82183,
3221.000,0.835488,
3220.000,0.84904,
3219.000,0.862327,
3218.000,0.875492,
3217.000,0.888847,
3216.000,0.902824,
3215.000,0.917805,
3214.000,0.933744,
3213.000,0.950127,
3212.000,0.966515,
3211.000,0.982976,
3210.000,0.999759,
3209.000,1.01674,
3208.000,1.0335,
3207.000,1.04992,
3206.000,1.06625,
3205.000,1.08283,
3204.000,1.09992,
3203.000,1.11777,
3202.000,1.13646,
3201.000,1.1558,
3200.000,1.17559,
3199.000,1.19593,
3198.000,1.21689,
3197.000,1.23803,
3196.000,1.25882,
3195.000,1.27939,
3194.000,1.30042,
3193.000,1.32223,
3192.000,1.34448,
3191.000,1.36682,
3190.000,1.38948,
3189.000,1.41263,
3188.000,1.43594,
3187.000,1.45905,
3186.000,1.4823,
3185.000,1.50636,
3184.000,1.53126,
3183.000,1.55617,
3182.000,1.58033,
3181.000,1.60377,
3180.000,1.62724,
3179.000,1.65141,
3178.000,1.67648,
3177.000,1.70218,
3176.000,1.72828,
3175.000,1.75491,
3174.000,1.78253,
3173.000,1.81131,
3172.000,1.84071,
3171.000,1.86977,
3170.000,1.898,
3169.000,1.92567,
3168.000,1.9534,
3167.000,1.98147,
3166.000,2.00968,
3165.000,2.03778,
3164.000,2.06583,
3163.000,2.0942,
3162.000,2.12327,
3161.000,2.15308,
3160.000,2.18326,
3159.000,2.21336,
3158.000,2.2432,
3157.000,2.27287,
3156.000,2.30246,
3155.000,2.33176,
3154.000,2.36058,
3153.000,2.38908,
3152.000,2.41766,
3151.000,2.44653,
3150.000,2.47549,
3149.000,2.50423,
3148.000,2.53266,
3147.000,2.56063,
3146.000,2.58783,
3145.000,2.61401,
3144.000,2.63948,
3143.000,2.66486,
3142.000,2.69034,
3141.000,2.71546,
3140.000,2.73974,
3139.000,2.76324,
3138.000,2.78619,
3137.000,2.80834,
3136.000,2.82898,
3135.000,2.84767,
3134.000,2.86463,
3133.000,2.88047,
3132.000,2.89557,
3131.000,2.90983,
3130.000,2.92277,
3129.000,2.93384,
3128.000,2.94281,
3127.000,2.94975,
3126.000,2.95487,
3125.000,2.95839,
3124.000,2.96056,
3123.000,2.96161,
3122.000,2.96145,
3121.000,2.95957,
3120.000,2.95549,
3119.000,2.94928,
3118.000,2.94162,
3117.000,2.93317,
3116.000,2.92401,
3115.000,2.91358,
3114.000,2.90125,
3113.000,2.88681,
3112.000,2.87055,
3111.000,2.85295,
3110.000,2.83435,
3109.000,2.81485,
3108.000,2.79447,
3107.000,2.77311,
3106.000,2.75076,
3105.000,2.72759,
3104.000,2.70389,
3103.000,2.67964,
3102.000,2.65443,
3101.000,2.62794,
3100.000,2.60052,
3099.000,2.57285,
3098.000,2.54516,
3097.000,2.51711,
3096.000,2.48853,
3095.000,2.45981,
3094.000,2.43129,
3093.000,2.40281,
3092.000,2.3739,
3091.000,2.34438,
3090.000,2.3144,
3089.000,2.28409,
3088.000,2.25337,
3087.000,2.22235,
3086.000,2.19144,
3085.000,2.16114,
3084.000,2.13171,
3083.000,2.10302,
3082.000,2.0746,
3081.000,2.04589,
3080.000,2.01651,
3079.000,1.98648,
3078.000,1.95613,
3077.000,1.92575,
3076.000,1.89542,
3075.000,1.86504,
3074.000,1.83455,
3073.000,1.80413,
3072.000,1.77406,
3071.000,1.74458,
3070.000,1.71575,
3069.000,1.68754,
3068.000,1.65974,
3067.000,1.6319,
3066.000,1.60362,
3065.000,1.575,
3064.000,1.54674,
3063.000,1.51943,
3062.000,1.49293,
3061.000,1.46666,
3060.000,1.44027,
3059.000,1.41395,
3058.000,1.38818,
3057.000,1.36319,
3056.000,1.33885,
3055.000,1.31472,
3054.000,1.29054,
3053.000,1.26662,
3052.000,1.24358,
3051.000,1.22164,
3050.000,1.20018,
3049.000,1.17842,
3048.000,1.1563,
3047.000,1.13443,
3046.000,1.11323,
3045.000,1.09246,
3044.000,1.07155,
3043.000,1.05029,
3042.000,1.0289,
3041.000,1.0078,
3040.000,0.987156,
3039.000,0.966763,
3038.000,0.946344,
3037.000,0.925976,
3036.000,0.906001,
3035.000,0.886461,
3034.000,0.866922,
3033.000,0.847134,
3032.000,0.827588,
3031.000,0.809071,
3030.000,0.791833,
3029.000,0.775488,
3028.000,0.759549,
3027.000,0.74363,
3026.000,0.727306,
3025.000,0.710357,
3024.000,0.693234,
3023.000,0.67685,
3022.000,0.661688,
3021.000,0.647363,
3020.000,0.633117,
3019.000,0.618516,
3018.000,0.603604,
3017.000,0.588678,
3016.000,0.574046,
3015.000,0.559843,
3014.000,0.545981,
3013.000,0.532364,
3012.000,0.519075,
3011.000,0.50619,
3010.000,0.493525,
3009.000,0.480817,
3008.000,0.468071,
3007.000,0.455435,
3006.000,0.442822,
3005.000,0.430016,
3004.000,0.417116,
3003.000,0.404522,
3002.000,0.392485,
3001.000,0.381008,
3000.000,0.370191,
2999.000,0.360208,
2998.000,0.350865,
2997.000,0.341592,
2996.000,0.332085,
2995.000,0.322594,
2994.000,0.313385,
2993.000,0.304273,
2992.000,0.294984,
2991.000,0.2857,
2990.000,0.276903,
2989.000,0.268824,
2988.000,0.261324,
2987.000,0.254188,
2986.000,0.247247,
2985.000,0.240291,
2984.000,0.233135,
2983.000,0.225839,
2982.000,0.218733,
2981.000,0.212164,
2980.000,0.206246,
2979.000,0.200789,
2978.000,0.195431,
2977.000,0.189863,
2976.000,0.18398,
2975.000,0.177849,
2974.000,0.171612,
2973.000,0.165513,
2972.000,0.159878,
2971.000,0.154868,
2970.000,0.150263,
2969.000,0.145658,
2968.000,0.140882,
2967.000,0.136024,
2966.000,0.13115,
2965.000,0.126276,
2964.000,0.121629,
2963.000,0.117588,
2962.000,0.11427,
2961.000,0.111445,
2960.000,0.108942,
2959.000,0.106816,
2958.000,0.104978,
2957.000,0.103012,
2956.000,0.100637,
2955.000,0.0981372,
2954.000,0.0960065,
2953.000,0.0942725,
2952.000,0.0924321,
2951.000,0.0900061,
2950.000,0.0869516,
2949.000,0.0836205,
2948.000,0.0805565,
2947.000,0.0782531,
2946.000,0.0768236,
2945.000,0.0758454,
2944.000,0.0746736,
2943.000,0.0729373,
2942.000,0.0706928,
2941.000,0.0682561,
2940.000,0.066111,
2939.000,0.0648646,
2938.000,0.0649259,
2937.000,0.0661765,
2936.000,0.0681801,
2935.000,0.0706969,
2934.000,0.073792,
2933.000,0.0774905,
2932.000,0.0816757,
2931.000,0.0864283,
2930.000,0.0921628,
2929.000,0.0991671,
2928.000,0.107096,
2927.000,0.11522,
2926.000,0.123234,
2925.000,0.131596,
2924.000,0.140946,
2923.000,0.151358,
2922.000,0.162314,
2921.000,0.173238,
2920.000,0.183837,
2919.000,0.19396,
2918.000,0.20341,
2917.000,0.212048,
2916.000,0.219908,
2915.000,0.227038,
2914.000,0.233262,
2913.000,0.238255,
2912.000,0.241822,
2911.000,0.243963,
2910.000,0.24471,
2909.000,0.244129,
2908.000,0.242534,
2907.000,0.24051,
2906.000,0.238626,
2905.000,0.237181,
2904.000,0.236218,
2903.000,0.235606,
2902.000,0.235019,
2901.000,0.234046,
2900.000,0.232521,
2899.000,0.230673,
2898.000,0.228838,
2897.000,0.227072,
2896.000,0.22518,
2895.000,0.223021,
2894.000,0.220591,
2893.000,0.217864,
2892.000,0.214764,
2891.000,0.21136,
2890.000,0.20791,
2889.000,0.204589,
2888.000,0.201249,
2887.000,0.197537,
2886.000,0.193242,
2885.000,0.188505,
2884.000,0.183745,
2883.000,0.179397,
2882.000,0.175625,
2881.000,0.172176,
2880.000,0.168553,
2879.000,0.164439,
2878.000,0.159965,
2877.000,0.155501,
2876.000,0.151233,
2875.000,0.147079,
2874.000,0.142999,
2873.000,0.139197,
2872.000,0.135882,
2871.000,0.13294,
2870.000,0.130012,
2869.000,0.126875,
2868.000,0.123642,
2867.000,0.120628,
2866.000,0.118197,
2865.000,0.11676,
2864.000,0.116726,
2863.000,0.118288,
2862.000,0.121264,
2861.000,0.12527,
2860.000,0.130123,
2859.000,0.136087,
2858.000,0.143654,
2857.000,0.152971,
2856.000,0.163436,
2855.000,0.173908,
2854.000,0.183394,
2853.000,0.191544,
2852.000,0.198535,
2851.000,0.204636,
2850.000,0.209879,
2849.000,0.214078,
2848.000,0.216958,
2847.000,0.218313,
2846.000,0.218161,
2845.000,0.216733,
2844.000,0.214324,
2843.000,0.211242,
2842.000,0.207904,
2841.000,0.204738,
2840.000,0.201807,
2839.000,0.198741,
2838.000,0.195331,
2837.000,0.192004,
2836.000,0.189322,
2835.000,0.187102,
2834.000,0.184536,
2833.000,0.181283,
2832.000,0.17795,
2831.000,0.175252,
2830.000,0.173118,
2829.000,0.171001,
2828.000,0.168765,
2827.000,0.166781,
2826.000,0.165275,
2825.000,0.164041,
2824.000,0.162806,
2823.000,0.16155,
2822.000,0.160367,
2821.000,0.159284,
2820.000,0.158319,
2819.000,0.157543,
2818.000,0.156943,
2817.000,0.156308,
2816.000,0.155391,
2815.000,0.154199,
2814.000,0.153046,
2813.000,0.152246,
2812.000,0.151716,
2811.000,0.15098,
2810.000,0.149667,
2809.000,0.147944,
2808.000,0.146301,
2807.000,0.144934,
2806.000,0.143605,
2805.000,0.142162,
2804.000,0.140875,
2803.000,0.140019,
2802.000,0.139388,
2801.000,0.138546,
2800.000,0.137479,
2799.000,0.136665,
2798.000,0.136472,
2797.000,0.13669,
2796.000,0.136705,
2795.000,0.136039,
2794.000,0.13474,
2793.000,0.133375,
2792.000,0.132579,
2791.000,0.132448,
2790.000,0.132436,
2789.000,0.131997,
2788.000,0.131213,
2787.000,0.130571,
2786.000,0.130265,
2785.000,0.130041,
2784.000,0.129762,
2783.000,0.129728,
2782.000,0.130236,
2781.000,0.130996,
2780.000,0.131245,
2779.000,0.130463,
2778.000,0.128901,
2777.000,0.127395,
2776.000,0.12666,
2775.000,0.126689,
2774.000,0.126762,
2773.000,0.126101,
2772.000,0.124605,
2771.000,0.122949,
2770.000,0.121926,
2769.000,0.121711,
2768.000,0.121777,
2767.000,0.1215,
2766.000,0.120769,
2765.000,0.119978,
2764.000,0.119509,
2763.000,0.11939,
2762.000,0.119511,
2761.000,0.119934,
2760.000,0.120766,
2759.000,0.12181,
2758.000,0.122643,
2757.000,0.123087,
2756.000,0.123368,
2755.000,0.123681,
2754.000,0.123841,
2753.000,0.123585,
2752.000,0.123014,
2751.000,0.122432,
2750.000,0.121853,
2749.000,0.120993,
2748.000,0.119788,
2747.000,0.11868,
2746.000,0.118266,
2745.000,0.118736,
2744.000,0.119651,
2743.000,0.120272,
2742.000,0.12015,
2741.000,0.119483,
2740.000,0.118917,
2739.000,0.118952,
2738.000,0.119511,
2737.000,0.120136,
2736.000,0.120543,
2735.000,0.120857,
2734.000,0.121267,
2733.000,0.121653,
2732.000,0.121697,
2731.000,0.121301,
2730.000,0.120783,
2729.000,0.120632,
2728.000,0.121087,
2727.000,0.121913,
2726.000,0.122632,
2725.000,0.123014,
2724.000,0.123269,
2723.000,0.123722,
2722.000,0.124384,
2721.000,0.124929,
2720.000,0.125044,
2719.000,0.124752,
2718.000,0.124435,
2717.000,0.124509,
2716.000,0.125023,
2715.000,0.12556,
2714.000,0.125669,
2713.000,0.125413,
2712.000,0.125351,
2711.000,0.125922,
2710.000,0.127022,
2709.000,0.128191,
2708.000,0.129003,
2707.000,0.129188,
2706.000,0.128676,
2705.000,0.127797,
2704.000,0.127258,
2703.000,0.127621,
2702.000,0.128778,
2701.000,0.13014,
2700.000,0.131239,
2699.000,0.131944,
2698.000,0.13221,
2697.000,0.131998,
2696.000,0.131533,
2695.000,0.131352,
2694.000,0.131835,
2693.000,0.132774,
2692.000,0.133532,
2691.000,0.133656,
2690.000,0.133283,
2689.000,0.132997,
2688.000,0.133356,
2687.000,0.134517,
2686.000,0.136208,
2685.000,0.137978,
2684.000,0.139421,
2683.000,0.140276,
2682.000,0.14048,
2681.000,0.140237,
2680.000,0.139948,
2679.000,0.139987,
2678.000,0.140544,
2677.000,0.141588,
2676.000,0.142835,
2675.000,0.143801,
2674.000,0.14416,
2673.000,0.144159,
2672.000,0.144435,
2671.000,0.14528,
2670.000,0.146287,
2669.000,0.146889,
2668.000,0.147027,
2667.000,0.147073,
2666.000,0.147308,
2665.000,0.147815,
2664.000,0.148745,
2663.000,0.150268,
2662.000,0.152209,
2661.000,0.154017,
2660.000,0.155219,
2659.000,0.15578,
2658.000,0.156008,
2657.000,0.156305,
2656.000,0.157004,
2655.000,0.158237,
2654.000,0.159833,
2653.000,0.161423,
2652.000,0.162707,
2651.000,0.163624,
2650.000,0.164361,
2649.000,0.165282,
2648.000,0.166705,
2647.000,0.168543,
2646.000,0.17026,
2645.000,0.171408,
2644.000,0.172183,
2643.000,0.173213,
2642.000,0.174829,
2641.000,0.176771,
2640.000,0.178571,
2639.000,0.179961,
2638.000,0.180917,
2637.000,0.181643,
2636.000,0.182613,
2635.000,0.184316,
2634.000,0.186772,
2633.000,0.189464,
2632.000,0.191907,
2631.000,0.194077,
2630.000,0.196157,
2629.000,0.198059,
2628.000,0.199506,
2627.000,0.20054,
2626.000,0.201747,
2625.000,0.203868,
2624.000,0.207193,
2623.000,0.211294,
2622.000,0.215278,
2621.000,0.2184,
2620.000,0.220565,
2619.000,0.222303,
2618.000,0.224284,
2617.000,0.226868,
2616.000,0.229996,
2615.000,0.23331,
2614.000,0.236333,
2613.000,0.238727,
2612.000,0.240575,
2611.000,0.242387,
2610.000,0.244735,
2609.000,0.247859,
2608.000,0.251582,
2607.000,0.255547,
2606.000,0.259467,
2605.000,0.263256,
2604.000,0.267032,
2603.000,0.270987,
2602.000,0.275164,
2601.000,0.27934,
2600.000,0.283196,
2599.000,0.286689,
2598.000,0.290264,
2597.000,0.294593,
2596.000,0.300002,
2595.000,0.306093,
2594.000,0.312073,
2593.000,0.317484,
2592.000,0.322547,
2591.000,0.327733,
2590.000,0.333168,
2589.000,0.338643,
2588.000,0.344083,
2587.000,0.349763,
2586.000,0.356019,
2585.000,0.362895,
2584.000,0.370137,
2583.000,0.377409,
2582.000,0.384476,
2581.000,0.391294,
2580.000,0.397981,
2579.000,0.404686,
2578.000,0.411505,
2577.000,0.418607,
2576.000,0.426316,
2575.000,0.434798,
2574.000,0.44369,
2573.000,0.452301,
2572.000,0.460371,
2571.000,0.468436,
2570.000,0.477242,
2569.000,0.486899,
2568.000,0.496827,
2567.000,0.506481,
2566.000,0.515945,
2565.000,0.52574,
2564.000,0.536235,
2563.000,0.54738,
2562.000,0.55891,
2561.000,0.570677,
2560.000,0.5827,
2559.000,0.595012,
2558.000,0.607614,
2557.000,0.620528,
2556.000,0.633769,
2555.000,0.647201,
2554.000,0.660601,
2553.000,0.673971,
2552.000,0.687636,
2551.000,0.70191,
2550.000,0.716723,
2549.000,0.731719,
2548.000,0.746651,
2547.000,0.761526,
2546.000,0.776508,
2545.000,0.79186,
2544.000,0.807858,
2543.000,0.824478,
2542.000,0.84122,
2541.000,0.857541,
2540.000,0.873483,
2539.000,0.88957,
2538.000,0.906083,
2537.000,0.922771,
2536.000,0.939401,
2535.000,0.956237,
2534.000,0.973721,
2533.000,0.991954,
2532.000,1.0107,
2531.000,1.02972,
2530.000,1.04884,
2529.000,1.06794,
2528.000,1.08707,
2527.000,1.10653,
2526.000,1.12656,
2525.000,1.14707,
2524.000,1.16783,
2523.000,1.18896,
2522.000,1.21081,
2521.000,1.2335,
2520.000,1.25672,
2519.000,1.27999,
2518.000,1.30307,
2517.000,1.32609,
2516.000,1.34942,
2515.000,1.37346,
2514.000,1.39831,
2513.000,1.4237,
2512.000,1.44921,
2511.000,1.47445,
2510.000,1.49915,
2509.000,1.52314,
2508.000,1.54664,
2507.000,1.57021,
2506.000,1.59431,
2505.000,1.6188,
2504.000,1.64316,
2503.000,1.66696,
2502.000,1.69014,
2501.000,1.7127,
2500.000,1.73452,
2499.000,1.75553,
2498.000,1.776,
2497.000,1.79622,
2496.000,1.8161,
2495.000,1.83517,
2494.000,1.85312,
2493.000,1.87011,
2492.000,1.88645,
2491.000,1.90208,
2490.000,1.91656,
2489.000,1.92963,
2488.000,1.94144,
2487.000,1.95208,
2486.000,1.96133,
2485.000,1.96895,
2484.000,1.9752,
2483.000,1.98052,
2482.000,1.98484,
2481.000,1.98768,
2480.000,1.98871,
2479.000,1.98803,
2478.000,1.98587,
2477.000,1.9822,
2476.000,1.97694,
2475.000,1.96998,
2474.000,1.96126,
2473.000,1.95083,
2472.000,1.9389,
2471.000,1.92576,
2470.000,1.91156,
2469.000,1.89637,
2468.000,1.88045,
2467.000,1.86422,
2466.000,1.84798,
2465.000,1.83195,
2464.000,1.81622,
2463.000,1.80059,
2462.000,1.78448,
2461.000,1.76751,
2460.000,1.74994,
2459.000,1.73221,
2458.000,1.71437,
2457.000,1.69612,
2456.000,1.67731,
2455.000,1.65794,
2454.000,1.63774,
2453.000,1.61659,
2452.000,1.59512,
2451.000,1.57427,
2450.000,1.55426,
2449.000,1.53433,
2448.000,1.51382,
2447.000,1.49279,
2446.000,1.47171,
2445.000,1.45083,
2444.000,1.43036,
2443.000,1.41046,
2442.000,1.39096,
2441.000,1.37136,
2440.000,1.35129,
2439.000,1.33086,
2438.000,1.31022,
2437.000,1.28928,
2436.000,1.26796,
2435.000,1.24654,
2434.000,1.22542,
2433.000,1.2047,
2432.000,1.1842,
2431.000,1.16374,
2430.000,1.14329,
2429.000,1.12302,
2428.000,1.10315,
2427.000,1.08382,
2426.000,1.06493,
2425.000,1.04635,
2424.000,1.02815,
2423.000,1.01042,
2422.000,0.993002,
2421.000,0.97561,
2420.000,0.958273,
2419.000,0.941255,
2418.000,0.924625,
2417.000,0.908253,
2416.000,0.892259,
2415.000,0.876991,
2414.000,0.862421,
2413.000,0.847932,
2412.000,0.83299,
2411.000,0.817766,
2410.000,0.802821,
2409.000,0.788376,
2408.000,0.774116,
2407.000,0.759643,
2406.000,0.744925,
2405.000,0.730335,
2404.000,0.716344,
2403.000,0.70312,
2402.000,0.690389,
2401.000,0.677779,
2400.000,0.665212,
2399.000,0.652821,
2398.000,0.640521,
2397.000,0.62798,
2396.000,0.61511,
2395.000,0.602318,
2394.000,0.590123,
2393.000,0.578636,
2392.000,0.567516,
2391.000,0.556328,
2390.000,0.544847,
2389.000,0.533187,
2388.000,0.52174,
2387.000,0.510851,
2386.000,0.500504,
2385.000,0.490371,
2384.000,0.480185,
2383.000,0.469941,
2382.000,0.459718,
2381.000,0.449558,
2380.000,0.439553,
2379.000,0.429876,
2378.000,0.4206,
2377.000,0.411634,
2376.000,0.402957,
2375.000,0.394764,
2374.000,0.387215,
2373.000,0.380127,
2372.000,0.373041,
2371.000,0.365597,
2370.000,0.357827,
2369.000,0.350185,
2368.000,0.343268,
2367.000,0.337284,
2366.000,0.331732,
2365.000,0.325733,
2364.000,0.318849,
2363.000,0.311623,
2362.000,0.305052,
2361.000,0.299478,
2360.000,0.294369,
2359.000,0.288994,
2358.000,0.283149,
2357.000,0.277297,
2356.000,0.271917,
2355.000,0.267141,
2354.000,0.262791,
2353.000,0.258626,
2352.000,0.254442,
2351.000,0.249909,
2350.000,0.244899,
2349.000,0.239609,
2348.000,0.234455,
2347.000,0.229819,
2346.000,0.225712,
2345.000,0.222027,
2344.000,0.218647,
2343.000,0.215475,
2342.000,0.212153,
2341.000,0.208114,
2340.000,0.203302,
2339.000,0.198327,
2338.000,0.194166,
2337.000,0.191443,
2336.000,0.19002,
2335.000,0.188963,
2334.000,0.187076,
2333.000,0.18373,
2332.000,0.179422,
2331.000,0.175291,
2330.000,0.172145,
2329.000,0.169799,
2328.000,0.167515,
2327.000,0.164921,
2326.000,0.162147,
2325.000,0.159598,
2324.000,0.157417,
2323.000,0.155506,
2322.000,0.153568,
2321.000,0.151312,
2320.000,0.148693,
2319.000,0.145895,
2318.000,0.143265,
2317.000,0.141047,
2316.000,0.139334,
2315.000,0.138043,
2314.000,0.136992,
2313.000,0.136005,
2312.000,0.134987,
2311.000,0.133901,
2310.000,0.132626,
2309.000,0.13104,
2308.000,0.12919,
2307.000,0.127405,
2306.000,0.125975,
2305.000,0.124834,
2304.000,0.123585,
2303.000,0.121965,
2302.000,0.120152,
2301.000,0.118594,
2300.000,0.117521,
2299.000,0.116762,
2298.000,0.115983,
2297.000,0.11505,
2296.000,0.114077,
2295.000,0.11321,
2294.000,0.112426,
2293.000,0.111592,
2292.000,0.110634,
2291.000,0.109678,
2290.000,0.109016,
2289.000,0.108918,
2288.000,0.109284,
2287.000,0.109477,
2286.000,0.10866,
2285.000,0.106528,
2284.000,0.103686,
2283.000,0.101216,
2282.000,0.0998271,
2281.000,0.0994696,
2280.000,0.099591,
2279.000,0.0995877,
2278.000,0.0990817,
2277.000,0.0980244,
2276.000,0.0966574,
2275.000,0.0952809,
2274.000,0.0939968,
2273.000,0.0927298,
2272.000,0.0915073,
2271.000,0.0905768,
2270.000,0.0901343,
2269.000,0.0900306,
2268.000,0.0898631,
2267.000,0.0893118,
2266.000,0.0883268,
2265.000,0.0870577,
2264.000,0.0857227,
2263.000,0.0845556,
2262.000,0.0837297,
2261.000,0.08324,
2260.000,0.082925,
2259.000,0.0826301,
2258.000,0.0822815,
2257.000,0.081839,
2256.000,0.0812918,
2255.000,0.0807472,
2254.000,0.0804558,
2253.000,0.0805994,
2252.000,0.081006,
2251.000,0.081191,
2250.000,0.0807586,
2249.000,0.0797212,
2248.000,0.0784524,
2247.000,0.0773986,
2246.000,0.0768283,
2245.000,0.0767403,
2244.000,0.0768847,
2243.000,0.0769168,
2242.000,0.0766355,
2241.000,0.0760935,
2240.000,0.0754758,
2239.000,0.0749201,
2238.000,0.0744882,
2237.000,0.0742461,
2236.000,0.0742187,
2235.000,0.0742636,
2234.000,0.0741055,
2233.000,0.0735547,
2232.000,0.0726949,
2231.000,0.0718464,
2230.000,0.0713144,
2229.000,0.0710854,
2228.000,0.0707485,
2227.000,0.0698708,
2226.000,0.068524,
2225.000,0.0673033,
2224.000,0.0667731,
2223.000,0.0669609,
2222.000,0.0674284,
2221.000,0.0677581,
2220.000,0.0678354,
2219.000,0.0676835,
2218.000,0.0672782,
2217.000,0.0666388,
2216.000,0.0659066,
2215.000,0.0652102,
2214.000,0.0645848,
2213.000,0.0641083,
2212.000,0.0639208,
2211.000,0.0640071,
2210.000,0.0641422,
2209.000,0.0641769,
2208.000,0.0642448,
2207.000,0.0645212,
2206.000,0.0648586,
2205.000,0.0648733,
2204.000,0.0644187,
2203.000,0.0638291,
2202.000,0.0636217,
2201.000,0.0639929,
2200.000,0.0646045,
2199.000,0.0648432,
2198.000,0.0643261,
2197.000,0.0631883,
2196.000,0.0618698,
2195.000,0.060678,
2194.000,0.0597026,
2193.000,0.0590846,
2192.000,0.0590627,
2191.000,0.0596418,
2190.000,0.0604041,
2189.000,0.0608556,
2188.000,0.0608895,
2187.000,0.0607373,
2186.000,0.0605793,
2185.000,0.0604568,
2184.000,0.0604851,
2183.000,0.0608217,
2182.000,0.0613799,
2181.000,0.061796,
2180.000,0.0617827,
2179.000,0.0613554,
2178.000,0.0606346,
2177.000,0.0596505,
2176.000,0.058489,
2175.000,0.0574994,
2174.000,0.0571585,
2173.000,0.0576534,
2172.000,0.058624,
2171.000,0.0593804,
2170.000,0.0594366,
2169.000,0.058878,
2168.000,0.0582338,
2167.000,0.0579723,
2166.000,0.0581037,
2165.000,0.058283,
2164.000,0.0582488,
2163.000,0.0580566,
2162.000,0.0579033,
2161.000,0.0578904,
2160.000,0.0580158,
2159.000,0.0582439,
2158.000,0.0584888,
2157.000,0.0586498,
2156.000,0.0587535,
2155.000,0.0589692,
2154.000,0.0594075,
2153.000,0.0599281,
2152.000,0.0601623,
2151.000,0.0598004,
2150.000,0.0589305,
2149.000,0.0580074,
2148.000,0.0574022,
2147.000,0.0570864,
2146.000,0.0568497,
2145.000,0.0566483,
2144.000,0.0565504,
2143.000,0.056477,
2142.000,0.0562803,
2141.000,0.0560812,
2140.000,0.0562412,
2139.000,0.0568971,
2138.000,0.0577412,
2137.000,0.0583615,
2136.000,0.0586183,
2135.000,0.0585873,
2134.000,0.0582937,
2133.000,0.0577484,
2132.000,0.0571748,
2131.000,0.0568971,
2130.000,0.0570124,
2129.000,0.0573541,
2128.000,0.0577315,
2127.000,0.0580559,
2126.000,0.0582648,
2125.000,0.0582975,
2124.000,0.0582248,
2123.000,0.0582727,
2122.000,0.0586035,
2121.000,0.0591748,
2120.000,0.0598349,
2119.000,0.0604342,
2118.000,0.0608517,
2117.000,0.061039,
2116.000,0.0610415,
2115.000,0.0608826,
2114.000,0.0604812,
2113.000,0.0598357,
2112.000,0.0592463,
2111.000,0.0591452,
2110.000,0.0596508,
2109.000,0.060428,
2108.000,0.061067,
2107.000,0.0614838,
2106.000,0.0618582,
2105.000,0.0623323,
2104.000,0.062915,
2103.000,0.0635202,
2102.000,0.0640046,
2101.000,0.0642258,
2100.000,0.0640337,
2099.000,0.0633438,
2098.000,0.0623755,
2097.000,0.06169,
2096.000,0.0617453,
2095.000,0.0623404,
2094.000,0.0627183,
2093.000,0.0624002,
2092.000,0.0617585,
2091.000,0.0615472,
2090.000,0.0619769,
2089.000,0.0625646,
2088.000,0.0628562,
2087.000,0.0629118,
2086.000,0.0630005,
2085.000,0.0631864,
2084.000,0.0634361,
2083.000,0.0638539,
2082.000,0.0645277,
2081.000,0.0652793,
2080.000,0.0658234,
2079.000,0.0661269,
2078.000,0.0664057,
2077.000,0.0667809,
2076.000,0.0671313,
2075.000,0.0673142,
2074.000,0.0673382,
2073.000,0.067297,
2072.000,0.0672765,
2071.000,0.0673224,
2070.000,0.0674503,
2069.000,0.0676735,
2068.000,0.0680361,
2067.000,0.0685916,
2066.000,0.0693378,
2065.000,0.0702639,
2064.000,0.0713903,
2063.000,0.0726213,
2062.000,0.0736229,
2061.000,0.0740522,
2060.000,0.0739666,
2059.000,0.073831,
2058.000,0.0740592,
2057.000,0.0746451,
2056.000,0.0752372,
2055.000,0.0755269,
2054.000,0.0755017,
2053.000,0.0753271,
2052.000,0.075162,
2051.000,0.0751506,
2050.000,0.0754786,
2049.000,0.0763076,
2048.000,0.0776135,
2047.000,0.0791306,
2046.000,0.0804744,
2045.000,0.0813436,
2044.000,0.0816867,
2043.000,0.0817305,
2042.000,0.0818603,
2041.000,0.0824325,
2040.000,0.0835667,
2039.000,0.0850041,
2038.000,0.086231,
2037.000,0.086889,
2036.000,0.0870937,
2035.000,0.0872728,
2034.000,0.0877016,
2033.000,0.0883064,
2032.000,0.0889025,
2031.000,0.0894368,
2030.000,0.0899485,
2029.000,0.0904875,
2028.000,0.0911761,
2027.000,0.0921637,
2026.000,0.0933965,
2025.000,0.0945755,
2024.000,0.0955084,
2023.000,0.0963583,
2022.000,0.0973849,
2021.000,0.0985985,
2020.000,0.0998588,
2019.000,0.101228,
2018.000,0.102973,
2017.000,0.105163,
2016.000,0.10741,
2015.000,0.10915,
2014.000,0.110152,
2013.000,0.110712,
2012.000,0.111403,
2011.000,0.112571,
2010.000,0.114026,
2009.000,0.115299,
2008.000,0.116247,
2007.000,0.117241,
2006.000,0.118708,
2005.000,0.120624,
2004.000,0.122628,
2003.000,0.124478,
2002.000,0.126211,
2001.000,0.127965,
2000.000,0.129799,
1999.000,0.131729,
1998.000,0.133681,
1997.000,0.135456,
1996.000,0.136939,
1995.000,0.13828,
1994.000,0.139756,
1993.000,0.141554,
1992.000,0.143767,
1991.000,0.146412,
1990.000,0.149279,
1989.000,0.151926,
1988.000,0.154092,
1987.000,0.156103,
1986.000,0.158536,
1985.000,0.16149,
1984.000,0.164518,
1983.000,0.167321,
1982.000,0.170202,
1981.000,0.173636,
1980.000,0.177579,
1979.000,0.181476,
1978.000,0.184761,
1977.000,0.187364,
1976.000,0.189817,
1975.000,0.192798,
1974.000,0.19651,
1973.000,0.200501,
1972.000,0.204243,
1971.000,0.207771,
1970.000,0.211569,
1969.000,0.215914,
1968.000,0.220605,
1967.000,0.225315,
1966.000,0.229958,
1965.000,0.234682,
1964.000,0.239685,
1963.000,0.245099,
1962.000,0.250972,
1961.000,0.257249,
1960.000,0.263811,
1959.000,0.270547,
1958.000,0.277321,
1957.000,0.283983,
1956.000,0.29054,
1955.000,0.297291,
1954.000,0.304589,
1953.000,0.312435,
1952.000,0.320558,
1951.000,0.32881,
1950.000,0.337361,
1949.000,0.346317,
1948.000,0.355354,
1947.000,0.364185,
1946.000,0.37294,
1945.000,0.381708,
1944.000,0.390063,
1943.000,0.397626,
1942.000,0.405053,
1941.000,0.413836,
1940.000,0.424894,
1939.000,0.43756,
1938.000,0.450197,
1937.000,0.461891,
1936.000,0.473186,
1935.000,0.485189,
1934.000,0.49845,
1933.000,0.512795,
1932.000,0.527802,
1931.000,0.542924,
1930.000,0.557734,
1929.000,0.572074,
1928.000,0.585931,
1927.000,0.600316,
1926.000,0.615787,
1925.000,0.633086,
1924.000,0.649444,
1923.000,0.665604,
1922.000,0.682364,
1921.000,0.698096,
1920.000,0.713889,
1919.000,0.729787,
1918.000,0.746036,
1917.000,0.762402,
1916.000,0.779081,
1915.000,0.796316,
1914.000,0.81379,
1913.000,0.830812,
1912.000,0.847084,
1911.000,0.863531,
1910.000,0.880472,
1909.000,0.898538,
1908.000,0.915938,
1907.000,0.93263,
1906.000,0.949674,
1905.000,0.966249,
1904.000,0.982518,
1903.000,0.998464,
1902.000,1.01454,
1901.000,1.0305,
1900.000,1.04609,
1899.000,1.06151,
1898.000,1.07653,
1897.000,1.09063,
1896.000,1.10322,
1895.000,1.11394,
1894.000,1.1234,
1893.000,1.13263,
1892.000,1.14141,
1891.000,1.14713,
1890.000,1.14731,
1889.000,1.14336,
1888.000,1.1401,
1887.000,1.14068,
1886.000,1.14276,
1885.000,1.1414,
1884.000,1.13492,
1883.000,1.12554,
1882.000,1.11544,
1881.000,1.10438,
1880.000,1.09183,
1879.000,1.07882,
1878.000,1.06602,
1877.000,1.05301,
1876.000,1.03933,
1875.000,1.02498,
1874.000,1.01015,
1873.000,0.995718,
1872.000,0.982165,
1871.000,0.969492,
1870.000,0.957606,
1869.000,0.945855,
1868.000,0.934029,
1867.000,0.922427,
1866.000,0.911092,
1865.000,0.899413,
1864.000,0.886928,
1863.000,0.873818,
1862.000,0.860371,
1861.000,0.846496,
1860.000,0.832072,
1859.000,0.817261,
1858.000,0.802127,
1857.000,0.786465,
1856.000,0.770259,
1855.000,0.753859,
1854.000,0.737496,
1853.000,0.720989,
1852.000,0.704127,
1851.000,0.686921,
1850.000,0.669377,
1849.000,0.651515,
1848.000,0.633699,
1847.000,0.616481,
1846.000,0.600013,
1845.000,0.583921,
1844.000,0.567761,
1843.000,0.551338,
1842.000,0.534677,
1841.000,0.518095,
1840.000,0.502209,
1839.000,0.487377,
1838.000,0.473202,
1837.000,0.458969,
1836.000,0.444578,
1835.000,0.430625,
1834.000,0.417561,
1833.000,0.405278,
1832.000,0.39341,
1831.000,0.38167,
1830.000,0.369746,
1829.000,0.357783,
1828.000,0.346044,
1827.000,0.335323,
1826.000,0.323985,
1825.000,0.311257,
1824.000,0.29865,
1823.000,0.287889,
1822.000,0.279311,
1821.000,0.271068,
1820.000,0.262566,
1819.000,0.254133,
1818.000,0.245752,
1817.000,0.23704,
1816.000,0.228086,
1815.000,0.219503,
1814.000,0.211628,
1813.000,0.204229,
1812.000,0.197327,
1811.000,0.19118,
1810.000,0.185945,
1809.000,0.181624,
1808.000,0.178053,
1807.000,0.174983,
1806.000,0.172025,
1805.000,0.168884,
1804.000,0.165567,
1803.000,0.162164,
1802.000,0.158488,
1801.000,0.154207,
1800.000,0.149589,
1799.000,0.145296,
1798.000,0.141695,
1797.000,0.13862,
1796.000,0.135676,
1795.000,0.132597,
1794.000,0.129028,
1793.000,0.124465,
1792.000,0.118957,
1791.000,0.11341,
1790.000,0.10894,
1789.000,0.106154,
1788.000,0.104786,
1787.000,0.103681,
1786.000,0.101385,
1785.000,0.0973995,
1784.000,0.092751,
1783.000,0.0889254,
1782.000,0.0863658,
1781.000,0.0844094,
1780.000,0.0825283,
1779.000,0.0806385,
1778.000,0.0786648,
1777.000,0.0764265,
1776.000,0.0739439,
1775.000,0.07149,
1774.000,0.0690129,
1773.000,0.0662599,
1772.000,0.0636041,
1771.000,0.0618038,
1770.000,0.0608972,
1769.000,0.0603016,
1768.000,0.0595735,
1767.000,0.0586996,
1766.000,0.0579299,
1765.000,0.0573609,
1764.000,0.0567538,
1763.000,0.0556595,
1762.000,0.0538589,
1761.000,0.0519011,
1760.000,0.0507801,
1759.000,0.0506942,
1758.000,0.0507252,
1757.000,0.0498475,
1756.000,0.0481266,
1755.000,0.0464635,
1754.000,0.0452038,
1753.000,0.043926,
1752.000,0.0423478,
1751.000,0.0407463,
1750.000,0.0395247,
1749.000,0.0388177,
1748.000,0.0385446,
1747.000,0.0385759,
1746.000,0.0385066,
1745.000,0.0377409,
1744.000,0.0362024,
1743.000,0.0344832,
1742.000,0.0331469,
1741.000,0.032129,
1740.000,0.031091,
1739.000,0.0301776,
1738.000,0.0299227,
1737.000,0.0303182,
1736.000,0.0305405,
1735.000,0.0296145,
1734.000,0.0274551,
1733.000,0.025258,
1732.000,0.0240068,
1731.000,0.0234129,
1730.000,0.0228638,
1729.000,0.0223181,
1728.000,0.0220511,
1727.000,0.021938,
1726.000,0.0212064,
1725.000,0.0190634,
1724.000,0.0154881,
1723.000,0.0113842,
1722.000,0.00793388,
1721.000,0.00564437,
1720.000,0.00418304,
1719.000,0.00316068,
1718.000,0.00293399,
1717.000,0.00340752,
1716.000,0.00357067,
1715.000,0.00329922,
1714.000,0.00292675,
1713.000,0.00246655,
1712.000,0.00206187,
1711.000,0.00191447,
1710.000,0.00212989,
1709.000,0.00276851,
1708.000,0.00382356,
1707.000,0.00507543,
1706.000,0.00631297,
1705.000,0.00761736,
1704.000,0.0092228,
1703.000,0.0113744,
1702.000,0.0144419,
1701.000,0.0193847,
1700.000,0.0269582,
1699.000,0.0372543,
1698.000,0.050986,
1697.000,0.0694892,
1696.000,0.0940196,
1695.000,0.123389,
1694.000,0.155086,
1693.000,0.187626,
1692.000,0.21827,
1691.000,0.243713,
1690.000,0.261626,
1689.000,0.271266,
1688.000,0.274772,
1687.000,0.274867,
1686.000,0.270545,
1685.000,0.257256,
1684.000,0.234719,
1683.000,0.211182,
1682.000,0.193429,
1681.000,0.180327,
1680.000,0.168503,
1679.000,0.157636,
1678.000,0.148854,
1677.000,0.14168,
1676.000,0.134599,
1675.000,0.127514,
1674.000,0.122463,
1673.000,0.120503,
1672.000,0.119821,
1671.000,0.117813,
1670.000,0.113623,
1669.000,0.108428,
1668.000,0.104229,
1667.000,0.101985,
1666.000,0.100697,
1665.000,0.098771,
1664.000,0.0955547,
1663.000,0.0915476,
1662.000,0.0876706,
1661.000,0.0842317,
1660.000,0.0810833,
1659.000,0.0782302,
1658.000,0.0758541,
1657.000,0.0741313,
1656.000,0.0731,
1655.000,0.0722792,
1654.000,0.0702562,
1653.000,0.0661723,
1652.000,0.0619714,
1651.000,0.0602584,
1650.000,0.0602005,
1649.000,0.0597876,
1648.000,0.059218,
1647.000,0.0590002,
1646.000,0.0586571,
1645.000,0.0577752,
1644.000,0.0566836,
1643.000,0.0556879,
1642.000,0.0547058,
1641.000,0.0535931,
1640.000,0.0524125,
1639.000,0.0515379,
1638.000,0.0511787,
1637.000,0.0509066,
1636.000,0.0498546,
1635.000,0.0478638,
1634.000,0.0461152,
1633.000,0.0457777,
1632.000,0.0464866,
1631.000,0.0472069,
1630.000,0.0472145,
1629.000,0.0462702,
1628.000,0.0448887,
1627.000,0.0438684,
1626.000,0.0433848,
1625.000,0.042929,
1624.000,0.0421643,
1623.000,0.0413956,
1622.000,0.0410961,
1621.000,0.0412776,
1620.000,0.0415567,
1619.000,0.0414927,
1618.000,0.0407588,
1617.000,0.0393002,
1616.000,0.0376272,
1615.000,0.0365336,
1614.000,0.0362047,
1613.000,0.0361923,
1612.000,0.0361219,
1611.000,0.0360098,
1610.000,0.0360326,
1609.000,0.0362069,
1608.000,0.0363775,
1607.000,0.0363132,
1606.000,0.035736,
1605.000,0.0345587,
1604.000,0.0332731,
1603.000,0.0326483,
1602.000,0.032849,
1601.000,0.0332782,
1600.000,0.0333843,
1599.000,0.0332692,
1598.000,0.0333596,
1597.000,0.0336875,
1596.000,0.0337726,
1595.000,0.0332331,
1594.000,0.0322769,
1593.000,0.0314705,
1592.000,0.0311403,
1591.000,0.0311377,
1590.000,0.0311371,
1589.000,0.0310708,
1588.000,0.0311669,
1587.000,0.0314976,
1586.000,0.0317377,
1585.000,0.031515,
1584.000,0.0308618,
1583.000,0.0301479,
1582.000,0.0295842,
1581.000,0.0290998,
1580.000,0.0286621,
1579.000,0.028361,
1578.000,0.0281611,
1577.000,0.0279104,
1576.000,0.0276797,
1575.000,0.0277916,
1574.000,0.0282763,
1573.000,0.0287123,
1572.000,0.0288092,
1571.000,0.0286387,
1570.000,0.0283917,
1569.000,0.0281809,
1568.000,0.0280265,
1567.000,0.0279438,
1566.000,0.0279027,
1565.000,0.0278296,
1564.000,0.0276835,
1563.000,0.0275073,
1562.000,0.0273308,
1561.000,0.0271949,
1560.000,0.0270462,
1559.000,0.0269979,
1558.000,0.0270064,
1557.000,0.0267301,
1556.000,0.0264115,
1555.000,0.0261736,
1554.000,0.0259655,
1553.000,0.0256947,
1552.000,0.0253069,
1551.000,0.02499,
1550.000,0.0248285,
1549.000,0.0246834,
1548.000,0.0243516,
1547.000,0.023868,
1546.000,0.0233758,
1545.000,0.0230023,
1544.000,0.0228168,
1543.000,0.0227277,
1542.000,0.0226715,
1541.000,0.0230411,
1540.000,0.0241156,
1539.000,0.0250364,
1538.000,0.0251669,
1537.000,0.0249747,
1536.000,0.0248032,
1535.000,0.0248446,
1534.000,0.0250647,
1533.000,0.025094,
1532.000,0.0248093,
1531.000,0.0243859,
1530.000,0.0240199,
1529.000,0.0237133,
1528.000,0.023458,
1527.000,0.0233774,
1526.000,0.0234821,
1525.000,0.0237092,
1524.000,0.024107,
1523.000,0.0247176,
1522.000,0.0253875,
1521.000,0.0256998,
1520.000,0.0254339,
1519.000,0.0248858,
1518.000,0.0244188,
1517.000,0.0242147,
1516.000,0.0242024,
1515.000,0.0241664,
1514.000,0.0240599,
1513.000,0.0240027,
1512.000,0.0241179,
1511.000,0.0242957,
1510.000,0.0241711,
1509.000,0.0235133,
1508.000,0.0226172,
1507.000,0.0222688,
1506.000,0.0227706,
1505.000,0.0235933,
1504.000,0.0242214,
1503.000,0.0242393,
1502.000,0.0238634,
1501.000,0.023747,
1500.000,0.0240483,
1499.000,0.0245337,
1498.000,0.0250206,
1497.000,0.0255861,
1496.000,0.0262505,
1495.000,0.0267267,
1494.000,0.0266979,
1493.000,0.026139,
1492.000,0.0253314,
1491.000,0.0246577,
1490.000,0.024355,
1489.000,0.0242906,
1488.000,0.0240921,
1487.000,0.0236838,
1486.000,0.0234731,
1485.000,0.0238585,
1484.000,0.0247167,
1483.000,0.0254121,
1482.000,0.0253911,
1481.000,0.0248181,
1480.000,0.0243759,
1479.000,0.02456,
1478.000,0.0252927,
1477.000,0.026134,
1476.000,0.0267111,
1475.000,0.0269594,
1474.000,0.0270375,
1473.000,0.0271265,
1472.000,0.0272676,
1471.000,0.0273454,
1470.000,0.0273589,
1469.000,0.0274312,
1468.000,0.0275836,
1467.000,0.0276929,
1466.000,0.0276584,
1465.000,0.0275262,
1464.000,0.0274032,
1463.000,0.0273224,
1462.000,0.027262,
1461.000,0.0272567,
1460.000,0.0274926,
1459.000,0.0280513,
1458.000,0.0285361,
1457.000,0.0285363,
1456.000,0.028259,
1455.000,0.0280039,
1454.000,0.0272887,
1453.000,0.0257087,
1452.000,0.0238426,
1451.000,0.0223213,
1450.000,0.02111,
1449.000,0.0200873,
1448.000,0.0197615,
1447.000,0.0206842,
1446.000,0.0224033,
1445.000,0.0239506,
1444.000,0.0249328,
1443.000,0.0255162,
1442.000,0.0259284,
1441.000,0.0261816,
1440.000,0.0262621,
1439.000,0.0263702,
1438.000,0.0265718,
1437.000,0.0265557,
1436.000,0.0262708,
1435.000,0.0262699,
1434.000,0.0268702,
1433.000,0.0276691,
1432.000,0.028,
1431.000,0.0275582,
1430.000,0.0266708,
1429.000,0.0260145,
1428.000,0.0260464,
1427.000,0.0266576,
1426.000,0.0272473,
1425.000,0.0271543,
1424.000,0.0262491,
1423.000,0.025088,
1422.000,0.0244075,
1421.000,0.0244095,
1420.000,0.0245815,
1419.000,0.024317,
1418.000,0.0236581,
1417.000,0.0232115,
1416.000,0.0235006,
1415.000,0.0244989,
1414.000,0.025596,
1413.000,0.0263088,
1412.000,0.0268104,
1411.000,0.0273743,
1410.000,0.0278524,
1409.000,0.027965,
1408.000,0.0277393,
1407.000,0.0274895,
1406.000,0.0274011,
1405.000,0.0274152,
1404.000,0.0275899,
1403.000,0.0281223,
1402.000,0.0289847,
1401.000,0.0298535,
1400.000,0.03048,
1399.000,0.0309122,
1398.000,0.0312359,
1397.000,0.0313964,
1396.000,0.0314251,
1395.000,0.0315821,
1394.000,0.0320571,
1393.000,0.0327456,
1392.000,0.0334223,
1391.000,0.0339437,
1390.000,0.0343198,
1389.000,0.0346753,
1388.000,0.0352041,
1387.000,0.0360834,
1386.000,0.0372173,
1385.000,0.0381473,
1384.000,0.0384756,
1383.000,0.0383289,
1382.000,0.0382377,
1381.000,0.0385894,
1380.000,0.0393743,
1379.000,0.040409,
1378.000,0.0416129,
1377.000,0.042997,
1376.000,0.0443703,
1375.000,0.0452893,
1374.000,0.0454956,
1373.000,0.0453382,
1372.000,0.0454562,
1371.000,0.0460235,
1370.000,0.0466295,
1369.000,0.0469759,
1368.000,0.0473741,
1367.000,0.0482448,
1366.000,0.0494686,
1365.000,0.0505539,
1364.000,0.0513341,
1363.000,0.0522169,
1362.000,0.053632,
1361.000,0.0555575,
1360.000,0.0576989,
1359.000,0.0598159,
1358.000,0.061788,
1357.000,0.0635743,
1356.000,0.0651864,
1355.000,0.0666531,
1354.000,0.067951,
1353.000,0.0689439,
1352.000,0.0693447,
1351.000,0.0687585,
1350.000,0.0668745,
1349.000,0.0638708,
1348.000,0.0605397,
1347.000,0.0576556,
1346.000,0.055397,
1345.000,0.0536005,
1344.000,0.0524296,
1343.000,0.0522075,
1342.000,0.052566,
1341.000,0.0524067,
1340.000,0.0509892,
1339.000,0.0487718,
1338.000,0.046879,
1337.000,0.0459449,
1336.000,0.0457822,
1335.000,0.0461038,
1334.000,0.0471532,
1333.000,0.0493864,
1332.000,0.0527204,
1331.000,0.0563907,
1330.000,0.0596229,
1329.000,0.0622821,
1328.000,0.0648215,
1327.000,0.0677075,
1326.000,0.0709539,
1325.000,0.0742648,
1324.000,0.0775426,
1323.000,0.0809791,
1322.000,0.0845927,
1321.000,0.0877898,
1320.000,0.0894987,
1319.000,0.0888432,
1318.000,0.0856943,
1317.000,0.0805822,
1316.000,0.0741635,
1315.000,0.0668718,
1314.000,0.0591259,
1313.000,0.051581,
1312.000,0.0449358,
1311.000,0.0396608,
1310.000,0.0360531,
1309.000,0.0343974,
1308.000,0.0349012,
1307.000,0.0373966,
1306.000,0.0411088,
1305.000,0.0451067,
1304.000,0.0490058,
1303.000,0.0529257,
1302.000,0.0569182,
1301.000,0.0606648,
1300.000,0.0637721,
1299.000,0.0662347,
1298.000,0.0685649,
1297.000,0.0715282,
1296.000,0.0756638,
1295.000,0.0808687,
1294.000,0.0863751,
1293.000,0.0913434,
1292.000,0.0956834,
1291.000,0.100179,
1290.000,0.105701,
1289.000,0.112355,
1288.000,0.119372,
1287.000,0.125795,
1286.000,0.13126,
1285.000,0.136209,
1284.000,0.141514,
1283.000,0.147798,
1282.000,0.154946,
1281.000,0.162112,
1280.000,0.168193,
1279.000,0.172457,
1278.000,0.175054,
1277.000,0.177033,
1276.000,0.179743,
1275.000,0.184007,
1274.000,0.189658,
1273.000,0.195863,
1272.000,0.20185,
1271.000,0.207182,
1270.000,0.211379,
1269.000,0.213616,
1268.000,0.213277,
1267.000,0.21092,
1266.000,0.208353,
1265.000,0.20758,
1264.000,0.209674,
1263.000,0.214639,
1262.000,0.222046,
1261.000,0.231476,
1260.000,0.242499,
1259.000,0.254709,
1258.000,0.267767,
1257.000,0.281154,
1256.000,0.293838,
1255.000,0.304481,
1254.000,0.312246,
1253.000,0.317286,
1252.000,0.320348,
1251.000,0.322061,
1250.000,0.3227,
1249.000,0.32224,
1248.000,0.320543,
1247.000,0.317517,
1246.000,0.313143,
1245.000,0.307396,
1244.000,0.300121,
1243.000,0.291272,
1242.000,0.281215,
1241.000,0.270423,
1240.000,0.258924,
1239.000,0.246313,
1238.000,0.232418,
1237.000,0.217617,
1236.000,0.202442,
1235.000,0.187234,
1234.000,0.172265,
1233.000,0.157833,
1232.000,0.143906,
1231.000,0.129852,
1230.000,0.114994,
1229.000,0.0994933,
1228.000,0.084376,
1227.000,0.0706526,
1226.000,0.0586749,
1225.000,0.0484223,
1224.000,0.0403336,
1223.000,0.0354758,
1222.000,0.0346223,
1221.000,0.0374613,
1220.000,0.0428112,
1219.000,0.049834,
1218.000,0.0589035,
1217.000,0.0709539,
1216.000,0.0863052,
1215.000,0.104218,
1214.000,0.123547,
1213.000,0.143444,
1212.000,0.163289,
1211.000,0.182487,
1210.000,0.200597,
1209.000,0.217394,
1208.000,0.232426,
1207.000,0.244895,
1206.000,0.254371,
1205.000,0.261436,
1204.000,0.267034,
1203.000,0.271236,
1202.000,0.273373,
1201.000,0.273235,
1200.000,0.271613,
1199.000,0.269506,
1198.000,0.267145,
1197.000,0.264042,
1196.000,0.25959,
1195.000,0.253594,
1194.000,0.24648,
1193.000,0.238977,
1192.000,0.231485,
1191.000,0.223747,
1190.000,0.215411,
1189.000,0.206875,
1188.000,0.199127,
1187.000,0.192646,
1186.000,0.186839,
1185.000,0.180798,
1184.000,0.174278,
1183.000,0.167692,
1182.000,0.161402,
1181.000,0.155378,
1180.000,0.149462,
1179.000,0.143689,
1178.000,0.138266,
1177.000,0.133269,
1176.000,0.128411,
1175.000,0.123195,
1174.000,0.117489,
1173.000,0.111988,
1172.000,0.107738,
1171.000,0.104978,
1170.000,0.102708,
1169.000,0.0996762,
1168.000,0.0956051,
1167.000,0.0911734,
1166.000,0.0871842,
1165.000,0.0841019,
1164.000,0.0819616,
1163.000,0.0802394,
1162.000,0.0779847,
1161.000,0.0746077,
1160.000,0.0705893,
1159.000,0.067006,
1158.000,0.0643949,
1157.000,0.0624656,
1156.000,0.0606982,
1155.000,0.0586314,
1154.000,0.0557555,
1153.000,0.0518718,
1152.000,0.0476616,
1151.000,0.0443182,
1150.000,0.042412,
1149.000,0.0415581,
1148.000,0.0413591,
1147.000,0.0416718,
1146.000,0.0418166,
1145.000,0.0408088,
1144.000,0.0385491,
1143.000,0.0361046,
1142.000,0.0344515,
1141.000,0.0333926,
1140.000,0.0322552,
1139.000,0.0310587,
1138.000,0.0302389,
1137.000,0.0296802,
1136.000,0.0287939,
1135.000,0.0273948,
1134.000,0.025886,
1133.000,0.0245374,
1132.000,0.0232429,
1131.000,0.0220874,
1130.000,0.0211012,
1129.000,0.0197069,
1128.000,0.017718,
1127.000,0.0162097,
1126.000,0.0163404,
1125.000,0.0177627,
1124.000,0.01884,
1123.000,0.0184546,
1122.000,0.0171353,
1121.000,0.0160695,
1120.000,0.015885,
1119.000,0.01676,
1118.000,0.0184973,
1117.000,0.0204482,
1116.000,0.0223397,
1115.000,0.0243336,
1114.000,0.0262608,
1113.000,0.0279186,
1112.000,0.0290044,
1111.000,0.0291458,
1110.000,0.0286119,
1109.000,0.0277663,
1108.000,0.0264778,
1107.000,0.0246571,
1106.000,0.0228443,
1105.000,0.0219995,
1104.000,0.0225798,
1103.000,0.0238701,
1102.000,0.0245435,
1101.000,0.0238443,
1100.000,0.0219214,
1099.000,0.0194743,
1098.000,0.0173292,
1097.000,0.0159204,
1096.000,0.0148695,
1095.000,0.0134362,
1094.000,0.0116582,
1093.000,0.010578,
1092.000,0.011096,
1091.000,0.0129029,
1090.000,0.014811,
1089.000,0.0158768,
1088.000,0.0160837,
1087.000,0.0160672,
1086.000,0.0162632,
1085.000,0.0163425,
1084.000,0.015576,
1083.000,0.0138641,
1082.000,0.0121498,
1081.000,0.0117511,
1080.000,0.0129934,
1079.000,0.0144076,
1078.000,0.0142574,
1077.000,0.0121914,
1076.000,0.00946367,
1075.000,0.00763834,
1074.000,0.00686608,
1073.000,0.00697892,
1072.000,0.00792923,
1071.000,0.00881084,
1070.000,0.00901431,
1069.000,0.008897,
1068.000,0.00932732,
1067.000,0.0108332,
1066.000,0.0130042,
1065.000,0.0148938,
1064.000,0.0155074,
1063.000,0.014261,
1062.000,0.0114988,
1061.000,0.00884522,
1060.000,0.00807827,
1059.000,0.00861262,
1058.000,0.00857795,
1057.000,0.00741338,
1056.000,0.00570522,
1055.000,0.00416576,
1054.000,0.00343496,
1053.000,0.0036184,
1052.000,0.00421786,
1051.000,0.00511647,
1050.000,0.00608415,
1049.000,0.00699776,
1048.000,0.00825851,
1047.000,0.010178,
1046.000,0.0119708,
1045.000,0.0121047,
1044.000,0.0101727,
1043.000,0.0075887,
1042.000,0.00653311,
1041.000,0.00788737,
1040.000,0.010343,
1039.000,0.0120375,
1038.000,0.0119014,
1037.000,0.0101768,
1036.000,0.00819429,
1035.000,0.00708737,
1034.000,0.00705728,
1033.000,0.00765351,
1032.000,0.0080987,
1031.000,0.00800825,
1030.000,0.00731054,
1029.000,0.00594421,
1028.000,0.00448351,
1027.000,0.00392416,
1026.000,0.00413717,
1025.000,0.00512489,
1024.000,0.00726024,
1023.000,0.00893781,
1022.000,0.00887415,
1021.000,0.0076504,
1020.000,0.00637424,
1019.000,0.0054239,
1018.000,0.00445466,
1017.000,0.00366656,
1016.000,0.00442467,
1015.000,0.00678362,
1014.000,0.00895081,
1013.000,0.00968649,
1012.000,0.00889594,
1011.000,0.00726339,
1010.000,0.00634453,
1009.000,0.00706089,
1008.000,0.0078393,
1007.000,0.00764887,
1006.000,0.00671969,
1005.000,0.00515127,
1004.000,0.00361148,
1003.000,0.003049,
1002.000,0.00310522,
1001.000,0.00338823,
1000.000,0.00390179,
999.000,0.0041984,
998.000,0.00426013,
997.000,0.00414766,
996.000,0.00339302,
995.000,0.00233195,
994.000,0.00133941,
993.000,0.00107251,
992.000,0.00249306,
991.000,0.00361011,
990.000,0.00382885,
989.000,0.00414898,
988.000,0.0051897,
987.000,0.00627753,
986.000,0.00653489,
985.000,0.00602525,
984.000,0.00537522,
983.000,0.00526602,
982.000,0.00555106,
981.000,0.00555569,
980.000,0.0050827,
979.000,0.00426461,
978.000,0.00349028,
977.000,0.00344351,
976.000,0.00392336,
975.000,0.00401425,
974.000,0.00351979,
973.000,0.00263891,
972.000,0.001762,
971.000,0.00151424,
970.000,0.00197661,
969.000,0.00313483,
968.000,0.004974,
967.000,0.00678202,
966.000,0.0080453,
965.000,0.00859294,
964.000,0.00836212,
963.000,0.00785036,
962.000,0.00753952,
961.000,0.00698068,
960.000,0.00611469,
959.000,0.00588198,
958.000,0.00606388,
957.000,0.00543822,
956.000,0.00410417,
955.000,0.00350319,
954.000,0.00292046,
953.000,0.00125146,
952.000,0.00223491,
951.000,0.00490802,
950.000,0.00572178,
949.000,0.00460321,
948.000,0.00214088,
947.000,0.000809336,
946.000,0.00239584,
945.000,0.0041514,
944.000,0.00579019,
943.000,0.00725865,
942.000,0.00832734,
941.000,0.00883065,
940.000,0.00854059,
939.000,0.00740998,
938.000,0.00534934,
937.000,0.00241899,
936.000,0.000858448,
935.000,0.00219793,
934.000,0.00185943,
933.000,0.00125563,
932.000,0.00309489,
931.000,0.00444195,
930.000,0.0045241,
929.000,0.00389681,
928.000,0.00308523,
927.000,0.00174011,
926.000,0.000893402,
925.000,0.00188707,
924.000,0.00260799,
923.000,0.003808,
922.000,0.00568643,
921.000,0.00684821,
920.000,0.00690938,
919.000,0.00645632,
918.000,0.00612845,
917.000,0.00573355,
916.000,0.00504293,
915.000,0.00431364,
914.000,0.00391388,
913.000,0.00459192,
912.000,0.00619537,
911.000,0.00780193,
910.000,0.00917579,
909.000,0.00970601,
908.000,0.00861349,
907.000,0.0061937,
906.000,0.00435373,
905.000,0.00439191,
904.000,0.00484913,
903.000,0.00546935,
902.000,0.00661469,
901.000,0.00696817,
900.000,0.00555936,
899.000,0.00330894,
898.000,0.00173365,
897.000,0.00067591,
896.000,0.000696844,
895.000,0.00239849,
894.000,0.00369284,
893.000,0.00403368,
892.000,0.0035946,
891.000,0.00301079,
890.000,0.00295036,
889.000,0.00291103,
888.000,0.00264501,
887.000,0.0029086,
886.000,0.00399463,
885.000,0.00434208,
884.000,0.00294995,
883.000,0.00178704,
882.000,0.0031908,
881.000,0.00508808,
880.000,0.00700892,
879.000,0.00823934,
878.000,0.0075099,
877.000,0.00471997,
876.000,0.00156132,
875.000,0.00130584,
874.000,0.0016558,
873.000,0.00126245,
872.000,0.00212684,
871.000,0.00336444,
870.000,0.00373254,
869.000,0.00353916,
868.000,0.0034116,
867.000,0.00329669,
866.000,0.00216114,
865.000,0.00106495,
864.000,0.00288882,
863.000,0.00434756,
862.000,0.0044947,
861.000,0.00379254,
860.000,0.0024269,
859.000,0.000902939,
858.000,0.00123959,
857.000,0.00355426,
856.000,0.00600894,
855.000,0.00785161,
854.000,0.00889227,
853.000,0.00969613,
852.000,0.0103661,
851.000,0.00986436,
850.000,0.0076756,
849.000,0.00490156,
848.000,0.00337592,
847.000,0.00366169,
846.000,0.00443331,
845.000,0.00461016,
844.000,0.00367116,
843.000,0.00311275,
842.000,0.0056928,
841.000,0.00820569,
840.000,0.00802116,
839.000,0.00575891,
838.000,0.00352516,
837.000,0.00265964,
836.000,0.00208895,
835.000,0.000866173,
834.000,0.0005778,
833.000,0.0016959,
832.000,0.00169252,
831.000,0.00155971,
830.000,0.00318036,
829.000,0.0046781,
828.000,0.00484899,
827.000,0.00342565,
826.000,0.00119447,
825.000,0.00119111,
824.000,0.00214458,
823.000,0.00141168,
822.000,0.00141279,
821.000,0.00308088,
820.000,0.00448651,
819.000,0.00556701,
818.000,0.00555451,
817.000,0.00446719,
816.000,0.00258596,
815.000,0.000651295,
814.000,0.00127096,
813.000,0.00167516,
812.000,0.00128409,
811.000,0.00095565,
810.000,0.00161584,
809.000,0.00275269,
808.000,0.00324419,
807.000,0.00263732,
806.000,0.00198125,
805.000,0.00324086,
804.000,0.00515466,
803.000,0.00662068,
802.000,0.00728056,
801.000,0.00679317,
800.000,0.0045727,
799.000,0.00121781,
798.000,0.00142505,
797.000,0.00194687,
796.000,0.000844984,
795.000,0.00262658,
794.000,0.00437641,
793.000,0.00360518,
792.000,0.00166982,
791.000,0.00206908,
790.000,0.00123314,
789.000,0.00261646,
788.000,0.00646346,
787.000,0.00865597,
786.000,0.0094593,
785.000,0.0100633,
784.000,0.0101036,
783.000,0.00846731,
782.000,0.00515992,
781.000,0.00250713,
780.000,0.00299719,
779.000,0.00377759,
778.000,0.00447129,
777.000,0.00555115,
776.000,0.00547369,
775.000,0.00452195,
774.000,0.00466353,
773.000,0.00425205,
772.000,0.00231775,
771.000,0.00386471,
770.000,0.00642607,
769.000,0.00656494,
768.000,0.00603279,
767.000,0.00717803,
766.000,0.00907309,
765.000,0.00980225,
764.000,0.00827379,
763.000,0.00426245,
762.000,0.00107479,
761.000,0.00234652,
760.000,0.00241136,
759.000,0.00169575,
758.000,0.0010494,
757.000,0.00106281,
756.000,0.00261271,
755.000,0.00470629,
754.000,0.00677736,
753.000,0.00766293,
752.000,0.00603838,
751.000,0.00300854,
750.000,0.00373299,
749.000,0.00576186,
748.000,0.00595679,
747.000,0.00534991,
746.000,0.00510921,
745.000,0.00552328,
744.000,0.0070437,
743.000,0.0090696,
742.000,0.00966523,
741.000,0.00850916,
740.000,0.00694091,
739.000,0.00554784,
738.000,0.00413742,
737.000,0.00313235,
736.000,0.00309691,
735.000,0.00342437,
734.000,0.00298126,
733.000,0.00165116,
732.000,0.000962043,
731.000,0.00224489,
730.000,0.00370466,
729.000,0.0051866,
728.000,0.00724596,
727.000,0.00948378,
726.000,0.0102994,
725.000,0.00881741,
724.000,0.00602977,
723.000,0.00367584,
722.000,0.00293257,
721.000,0.00415487,
720.000,0.00593686,
719.000,0.00662732,
718.000,0.00598239,
717.000,0.00476315,
716.000,0.00375835,
715.000,0.00366895,
714.000,0.00456154,
713.000,0.00549421,
712.000,0.00457534,
711.000,0.00258225,
710.000,0.00511659,
709.000,0.00824764,
708.000,0.00903258,
707.000,0.00843237,
706.000,0.00790618,
705.000,0.00782953,
704.000,0.00809313,
703.000,0.00930392,
702.000,0.0109283,
701.000,0.0114894,
700.000,0.00999667,
699.000,0.00686395,
698.000,0.00550943,
697.000,0.00801823,
696.000,0.0104866,
695.000,0.0102791,
694.000,0.00621645,
693.000,0.00276499,
692.000,0.0063558,
691.000,0.00801276,
690.000,0.00782601,
689.000,0.00815591,
688.000,0.00704724,
687.000,0.00380237,
686.000,0.00205584,
685.000,0.00324615,
684.000,0.00209819,
683.000,0.00208914,
682.000,0.00565553,
681.000,0.00718324,
680.000,0.00591036,
679.000,0.00404915,
678.000,0.00326769,
677.000,0.00316737,
676.000,0.002577,
675.000,0.00157931,
674.000,0.00211794,
673.000,0.00385758,
672.000,0.00615247,
671.000,0.00880444,
670.000,0.0114473,
669.000,0.0134235,
668.000,0.0138745,
667.000,0.0125316,
666.000,0.0102068,
665.000,0.00789786,
664.000,0.00598566,
663.000,0.00457246,
662.000,0.00348925,
661.000,0.00266332,
660.000,0.00267404,
659.000,0.00255766,
658.000,0.00196072,
657.000,0.00280174,
656.000,0.00317522,
655.000,0.00206387,
654.000,0.00274657,
653.000,0.00527286,
652.000,0.00639633,
651.000,0.0052578,
650.000,0.00344582,
649.000,0.00384444,
648.000,0.0060965,
647.000,0.0080657,
646.000,0.00843803,
645.000,0.00723284,
644.000,0.00501335,
643.000,0.00230805,
642.000,0.00279691,
641.000,0.00628707,
640.000,0.00908884,
639.000,0.0103241,
638.000,0.00988081,
637.000,0.00806128,
636.000,0.00489769,
635.000,0.00148826,
634.000,0.00203639,
633.000,0.00267422,
632.000,0.0034921,
631.000,0.00572246,
630.000,0.00589017,
629.000,0.00266571,
628.000,0.00464116,
627.000,0.0106145,
626.000,0.0135987,
625.000,0.0139785,
624.000,0.0129732,
623.000,0.0113576,
622.000,0.0105044,
621.000,0.00989254,
620.000,0.00773055,
619.000,0.00471598,
618.000,0.00469445,
617.000,0.00525917,
616.000,0.00294049,
615.000,0.00388835,
614.000,0.00818802,
613.000,0.00995702,
612.000,0.0103881,
611.000,0.0117014,
610.000,0.0137389,
609.000,0.0157237,
608.000,0.0164908,
607.000,0.0142996,
606.000,0.0120251,
605.000,0.0135315,
604.000,0.0132307,
603.000,0.0102836,
602.000,0.011095,
601.000,0.0161158,
600.000,0.0202132,
599.000,0.0206011,
598.000,0.014139,
597.000,0.00232384,
596.000,0.00603923,
595.000,0.0102984,
594.000,0.0118368,
593.000,0.012604,
592.000,0.0114904,
591.000,0.00745876,
590.000,0.00289599,
589.000,0.00559733,
588.000,0.00749868,
587.000,0.00509847,
586.000,0.00443451,
585.000,0.00928996,
584.000,0.0128283,
583.000,0.0123299,
582.000,0.00687724,
581.000,0.00182905,
580.000,0.00785368,
579.000,0.00912916,
578.000,0.00590931,
577.000,0.00280763,
576.000,0.0037556,
575.000,0.00673638,
574.000,0.0113255,
573.000,0.0149238,
572.000,0.0147745,
571.000,0.0111929,
570.000,0.00627935,
569.000,0.00277152,
568.000,0.00465139,
567.000,0.00689506,
566.000,0.00780992,
565.000,0.00930257,
564.000,0.0112908,
563.000,0.0113149,
562.000,0.00750733,
561.000,0.00335978,
560.000,0.00243736,
559.000,0.00256602,
558.000,0.00988238,
557.000,0.0165849,
556.000,0.0182245,
555.000,0.0144765,
554.000,0.00865864,
553.000,0.00821155,
552.000,0.0127768,
551.000,0.0154971,
550.000,0.0138255,
549.000,0.00776566,
548.000,0.00138529,
547.000,0.00653894,
546.000,0.00966346,
545.000,0.0103548,
544.000,0.0117951,
543.000,0.01266,
542.000,0.00836165,
541.000,0.00567454,
540.000,0.00949098,
539.000,0.0108086,
538.000,0.0116678,
537.000,0.0102106,
536.000,0.0066889,
535.000,0.0112243,
534.000,0.016239,
533.000,0.0144942,
532.000,0.00868782,
531.000,0.00891119,
530.000,0.0121597,
529.000,0.00892675,
528.000,0.00365571,
527.000,0.0065407,
526.000,0.00478375,
525.000,0.00131298,
524.000,0.00646643,
523.000,0.0134211,
522.000,0.0227726,
521.000,0.0275285,
520.000,0.0246809,
519.000,0.0171434,
518.000,0.00992893,
517.000,0.0101131,
516.000,0.0134047,
515.000,0.015317,
514.000,0.0185271,
513.000,0.0189909,
512.000,0.0166155,
511.000,0.0213001,
510.000,0.0264008,
509.000,0.0228154,
508.000,0.0126046,
507.000,0.0025115,
506.000,0.00736578,
505.000,0.0178542,
504.000,0.0240961,
503.000,0.0226972,
502.000,0.0176883,
501.000,0.0134396,
500.000,0.0101818,
499.000,0.015971,
498.000,0.0257184,
497.000,0.0294308,
496.000,0.0247807,
495.000,0.015206,
494.000,0.00607985,
493.000,0.00617042,
492.000,0.0148749,
491.000,0.0212102,
490.000,0.0219884,
489.000,0.0196737,
488.000,0.0198278,
487.000,0.0257773,
486.000,0.0303704,
485.000,0.0246944,
484.000,0.0112318,
483.000,0.00381147,
482.000,0.0098529,
481.000,0.0144732,
480.000,0.017955,
479.000,0.020767,
478.000,0.0192575,
477.000,0.0125824,
476.000,0.00596115,
475.000,0.0172498,
474.000,0.0317751,
473.000,0.0376059,
472.000,0.0355417,
471.000,0.031979,
470.000,0.0280098,
469.000,0.0205974,
468.000,0.00874456,
467.000,0.00932292,
466.000,0.0136366,
465.000,0.00260796,
464.000,0.014805,
463.000,0.0359079,
462.000,0.0516957,
461.000,0.0557677,
460.000,0.0487445,
459.000,0.0349571,
458.000,0.0172639,
457.000,0.0132582,
456.000,0.0407684,
455.000,0.0724954,
454.000,0.0869688,
453.000,0.077717,
452.000,0.0586334,
451.000,0.0440708,
450.000,0.0359629,
449.000,0.0334937,
448.000,0.0327307,
447.000,0.0288546,
446.000,0.016527,
445.000,0.00700739,
444.000,0.0295164,
443.000,0.0441014,
442.000,0.0376725,
441.000,0.0238718,
440.000,0.042224,
439.000,0.0645297,
438.000,0.0710471,
437.000,0.0639105,
436.000,0.0485335,
435.000,0.0320121,
434.000,0.0237003,
433.000,0.0308095,
432.000,0.0525506,
431.000,0.0827789,
430.000,0.105886,
429.000,0.106628,
428.000,0.0826578,
427.000,0.0474104,
426.000,0.0226414,
425.000,0.0125998,
424.000,0.0298971,
423.000,0.0764278,
422.000,0.112275,
421.000,0.118932,
420.000,0.104613,
419.000,0.0863088,
418.000,0.0689514,
417.000,0.049423,
416.000,0.0397178,
415.000,0.0569991,
414.000,0.0809283,
413.000,0.0997606,
412.000,0.110208,
411.000,0.10667,
410.000,0.088354,
409.000,0.072062,
408.000,0.0814108,
407.000,0.112755,
406.000,0.155416,
405.000,0.196219,
404.000,0.219537,
403.000,0.220031,
402.000,0.20593,
401.000,0.192142,
400.000,0.184285,
