,d2o 061 By Administrator Date Tuesday. December 14 2021,
Time,16:57:50,
Wavenumbers [1/cm],Transmittance %,
7000.000,7.44354,
6999.000,7.39361,
6998.000,7.35648,
6997.000,7.32421,
6996.000,7.2877,
6995.000,7.24695,
6994.000,7.20862,
6993.000,7.17535,
6992.000,7.14132,
6991.000,7.09968,
6990.000,7.05207,
6989.000,7.00749,
6988.000,6.97177,
6987.000,6.94046,
6986.000,6.90403,
6985.000,6.85939,
6984.000,6.81262,
6983.000,6.76902,
6982.000,6.72628,
6981.000,6.68088,
6980.000,6.63577,
6979.000,6.59684,
6978.000,6.56408,
6977.000,6.53195,
6976.000,6.49817,
6975.000,6.46555,
6974.000,6.43503,
6973.000,6.40323,
6972.000,6.36779,
6971.000,6.33064,
6970.000,6.29396,
6969.000,6.25706,
6968.000,6.21966,
6967.000,6.18359,
6966.000,6.14912,
6965.000,6.11315,
6964.000,6.07389,
6963.000,6.03443,
6962.000,5.99828,
6961.000,5.96361,
6960.000,5.92571,
6959.000,5.884,
6958.000,5.84312,
6957.000,5.80769,
6956.000,5.77799,
6955.000,5.75092,
6954.000,5.72346,
6953.000,5.69484,
6952.000,5.6659,
6951.000,5.63728,
6950.000,5.60862,
6949.000,5.57985,
6948.000,5.55237,
6947.000,5.52728,
6946.000,5.50274,
6945.000,5.47552,
6944.000,5.44487,
6943.000,5.41281,
6942.000,5.38061,
6941.000,5.34759,
6940.000,5.31397,
6939.000,5.28223,
6938.000,5.25389,
6937.000,5.22729,
6936.000,5.2005,
6935.000,5.17408,
6934.000,5.1493,
6933.000,5.12556,
6932.000,5.10146,
6931.000,5.07672,
6930.000,5.05075,
6929.000,5.02086,
6928.000,4.98572,
6927.000,4.94974,
6926.000,4.92065,
6925.000,4.90185,
6924.000,4.8887,
6923.000,4.87323,
6922.000,4.85125,
6921.000,4.82391,
6920.000,4.79407,
6919.000,4.76276,
6918.000,4.72938,
6917.000,4.69495,
6916.000,4.66415,
6915.000,4.64271,
6914.000,4.63127,
6913.000,4.62292,
6912.000,4.60907,
6911.000,4.58742,
6910.000,4.56278,
6909.000,4.54056,
6908.000,4.52148,
6907.000,4.50304,
6906.000,4.48401,
6905.000,4.46537,
6904.000,4.44806,
6903.000,4.43215,
6902.000,4.41787,
6901.000,4.40565,
6900.000,4.39487,
6899.000,4.38363,
6898.000,4.37038,
6897.000,4.35495,
6896.000,4.33737,
6895.000,4.31665,
6894.000,4.29186,
6893.000,4.26406,
6892.000,4.23672,
6891.000,4.21391,
6890.000,4.19773,
6889.000,4.18682,
6888.000,4.17707,
6887.000,4.16478,
6886.000,4.14964,
6885.000,4.13442,
6884.000,4.12107,
6883.000,4.108,
6882.000,4.09218,
6881.000,4.07386,
6880.000,4.0572,
6879.000,4.04503,
6878.000,4.03447,
6877.000,4.02001,
6876.000,4.00061,
6875.000,3.98194,
6874.000,3.97048,
6873.000,3.96673,
6872.000,3.96584,
6871.000,3.9639,
6870.000,3.96102,
6869.000,3.95745,
6868.000,3.95014,
6867.000,3.93671,
6866.000,3.92063,
6865.000,3.90863,
6864.000,3.90323,
6863.000,3.90114,
6862.000,3.89937,
6861.000,3.89903,
6860.000,3.90057,
6859.000,3.89986,
6858.000,3.89323,
6857.000,3.88348,
6856.000,3.87648,
6855.000,3.87352,
6854.000,3.87129,
6853.000,3.86851,
6852.000,3.86772,
6851.000,3.86967,
6850.000,3.87107,
6849.000,3.87007,
6848.000,3.86929,
6847.000,3.8708,
6846.000,3.87151,
6845.000,3.86713,
6844.000,3.85889,
6843.000,3.85274,
6842.000,3.85233,
6841.000,3.85544,
6840.000,3.85787,
6839.000,3.85881,
6838.000,3.86112,
6837.000,3.8671,
6836.000,3.87473,
6835.000,3.87942,
6834.000,3.88028,
6833.000,3.88312,
6832.000,3.8941,
6831.000,3.91099,
6830.000,3.92472,
6829.000,3.93053,
6828.000,3.93331,
6827.000,3.93979,
6826.000,3.94954,
6825.000,3.95705,
6824.000,3.96048,
6823.000,3.96423,
6822.000,3.9735,
6821.000,3.98904,
6820.000,4.0072,
6819.000,4.02305,
6818.000,4.03377,
6817.000,4.04121,
6816.000,4.05022,
6815.000,4.06321,
6814.000,4.07718,
6813.000,4.08836,
6812.000,4.09815,
6811.000,4.11142,
6810.000,4.12929,
6809.000,4.14691,
6808.000,4.15939,
6807.000,4.16738,
6806.000,4.17558,
6805.000,4.18786,
6804.000,4.20472,
6803.000,4.22433,
6802.000,4.24472,
6801.000,4.26491,
6800.000,4.28455,
6799.000,4.30275,
6798.000,4.31829,
6797.000,4.33146,
6796.000,4.34496,
6795.000,4.36186,
6794.000,4.38281,
6793.000,4.4059,
6792.000,4.42873,
6791.000,4.4502,
6790.000,4.47098,
6789.000,4.4926,
6788.000,4.51577,
6787.000,4.5394,
6786.000,4.56247,
6785.000,4.58636,
6784.000,4.61336,
6783.000,4.64274,
6782.000,4.67136,
6781.000,4.69876,
6780.000,4.72846,
6779.000,4.76217,
6778.000,4.79579,
6777.000,4.82399,
6776.000,4.84702,
6775.000,4.86971,
6774.000,4.89497,
6773.000,4.92175,
6772.000,4.94843,
6771.000,4.97482,
6770.000,5.00091,
6769.000,5.02642,
6768.000,5.05175,
6767.000,5.07776,
6766.000,5.10472,
6765.000,5.13283,
6764.000,5.16329,
6763.000,5.19675,
6762.000,5.23109,
6761.000,5.26267,
6760.000,5.29017,
6759.000,5.31586,
6758.000,5.34336,
6757.000,5.37524,
6756.000,5.4121,
6755.000,5.45262,
6754.000,5.49495,
6753.000,5.5384,
6752.000,5.58279,
6751.000,5.62584,
6750.000,5.66372,
6749.000,5.69555,
6748.000,5.72541,
6747.000,5.7577,
6746.000,5.79246,
6745.000,5.82762,
6744.000,5.86363,
6743.000,5.90247,
6742.000,5.94368,
6741.000,5.98455,
6740.000,6.02361,
6739.000,6.06128,
6738.000,6.0977,
6737.000,6.13283,
6736.000,6.16831,
6735.000,6.20637,
6734.000,6.24689,
6733.000,6.28803,
6732.000,6.32959,
6731.000,6.37318,
6730.000,6.41921,
6729.000,6.46588,
6728.000,6.51138,
6727.000,6.55532,
6726.000,6.59873,
6725.000,6.64388,
6724.000,6.69325,
6723.000,6.74642,
6722.000,6.79931,
6721.000,6.84896,
6720.000,6.89779,
6719.000,6.94997,
6718.000,7.00459,
6717.000,7.05633,
6716.000,7.10288,
6715.000,7.14748,
6714.000,7.19348,
6713.000,7.23992,
6712.000,7.28431,
6711.000,7.32739,
6710.000,7.37323,
6709.000,7.42551,
6708.000,7.48453,
6707.000,7.54701,
6706.000,7.60829,
6705.000,7.66541,
6704.000,7.71867,
6703.000,7.76992,
6702.000,7.81982,
6701.000,7.86826,
6700.000,7.91662,
6699.000,7.96851,
6698.000,8.02601,
6697.000,8.08754,
6696.000,8.14913,
6695.000,8.2081,
6694.000,8.26537,
6693.000,8.32397,
6692.000,8.38513,
6691.000,8.44674,
6690.000,8.50655,
6689.000,8.56574,
6688.000,8.62725,
6687.000,8.69106,
6686.000,8.75383,
6685.000,8.81368,
6684.000,8.87297,
6683.000,8.93532,
6682.000,9.00237,
6681.000,9.07378,
6680.000,9.14775,
6679.000,9.22066,
6678.000,9.28884,
6677.000,9.35201,
6676.000,9.41284,
6675.000,9.47304,
6674.000,9.53283,
6673.000,9.59439,
6672.000,9.66168,
6671.000,9.73482,
6670.000,9.8087,
6669.000,9.87933,
6668.000,9.94784,
6667.000,10.0159,
6666.000,10.0819,
6665.000,10.1448,
6664.000,10.2093,
6663.000,10.2804,
6662.000,10.3572,
6661.000,10.4343,
6660.000,10.5078,
6659.000,10.5775,
6658.000,10.6444,
6657.000,10.7094,
6656.000,10.7731,
6655.000,10.8359,
6654.000,10.8983,
6653.000,10.9622,
6652.000,11.0307,
6651.000,11.1027,
6650.000,11.1729,
6649.000,11.2385,
6648.000,11.3031,
6647.000,11.3708,
6646.000,11.4403,
6645.000,11.5083,
6644.000,11.5748,
6643.000,11.6418,
6642.000,11.7091,
6641.000,11.7753,
6640.000,11.841,
6639.000,11.9068,
6638.000,11.9708,
6637.000,12.0309,
6636.000,12.0877,
6635.000,12.1421,
6634.000,12.1933,
6633.000,12.241,
6632.000,12.2891,
6631.000,12.3417,
6630.000,12.3985,
6629.000,12.456,
6628.000,12.5111,
6627.000,12.562,
6626.000,12.607,
6625.000,12.6466,
6624.000,12.6836,
6623.000,12.7195,
6622.000,12.7537,
6621.000,12.7874,
6620.000,12.8248,
6619.000,12.8665,
6618.000,12.9066,
6617.000,12.939,
6616.000,12.964,
6615.000,12.9845,
6614.000,13.0012,
6613.000,13.0133,
6612.000,13.0235,
6611.000,13.0346,
6610.000,13.0462,
6609.000,13.0564,
6608.000,13.0652,
6607.000,13.0727,
6606.000,13.0772,
6605.000,13.0776,
6604.000,13.0762,
6603.000,13.0744,
6602.000,13.07,
6601.000,13.0608,
6600.000,13.0486,
6599.000,13.0359,
6598.000,13.0215,
6597.000,13.0029,
6596.000,12.9816,
6595.000,12.9598,
6594.000,12.9356,
6593.000,12.9061,
6592.000,12.8723,
6591.000,12.8374,
6590.000,12.8013,
6589.000,12.762,
6588.000,12.7199,
6587.000,12.6779,
6586.000,12.637,
6585.000,12.5972,
6584.000,12.5599,
6583.000,12.5271,
6582.000,12.4967,
6581.000,12.4635,
6580.000,12.4234,
6579.000,12.3753,
6578.000,12.3205,
6577.000,12.2626,
6576.000,12.2058,
6575.000,12.1519,
6574.000,12.1002,
6573.000,12.0502,
6572.000,12.003,
6571.000,11.9564,
6570.000,11.9056,
6569.000,11.849,
6568.000,11.7919,
6567.000,11.7394,
6566.000,11.6893,
6565.000,11.6359,
6564.000,11.5773,
6563.000,11.5161,
6562.000,11.4534,
6561.000,11.3887,
6560.000,11.323,
6559.000,11.2589,
6558.000,11.1977,
6557.000,11.1396,
6556.000,11.0852,
6555.000,11.0346,
6554.000,10.9845,
6553.000,10.9313,
6552.000,10.8749,
6551.000,10.818,
6550.000,10.7606,
6549.000,10.7003,
6548.000,10.6359,
6547.000,10.5701,
6546.000,10.5065,
6545.000,10.4467,
6544.000,10.3895,
6543.000,10.3327,
6542.000,10.2753,
6541.000,10.2182,
6540.000,10.1626,
6539.000,10.1073,
6538.000,10.0496,
6537.000,9.98831,
6536.000,9.92556,
6535.000,9.8627,
6534.000,9.79841,
6533.000,9.73216,
6532.000,9.66731,
6531.000,9.60853,
6530.000,9.55712,
6529.000,9.51038,
6528.000,9.46424,
6527.000,9.41492,
6526.000,9.35992,
6525.000,9.29971,
6524.000,9.23798,
6523.000,9.17869,
6522.000,9.12373,
6521.000,9.07348,
6520.000,9.02756,
6519.000,8.98335,
6518.000,8.93614,
6517.000,8.883,
6516.000,8.82578,
6515.000,8.76901,
6514.000,8.7154,
6513.000,8.66437,
6512.000,8.61377,
6511.000,8.56183,
6510.000,8.50806,
6509.000,8.45308,
6508.000,8.39725,
6507.000,8.34003,
6506.000,8.28185,
6505.000,8.2257,
6504.000,8.17435,
6503.000,8.12624,
6502.000,8.07714,
6501.000,8.02591,
6500.000,7.97577,
6499.000,7.92883,
6498.000,7.8829,
6497.000,7.83494,
6496.000,7.78502,
6495.000,7.73486,
6494.000,7.68518,
6493.000,7.63623,
6492.000,7.58877,
6491.000,7.5427,
6490.000,7.49669,
6489.000,7.45042,
6488.000,7.40498,
6487.000,7.35983,
6486.000,7.31218,
6485.000,7.26136,
6484.000,7.21091,
6483.000,7.16414,
6482.000,7.12002,
6481.000,7.07597,
6480.000,7.03228,
6479.000,6.99055,
6478.000,6.94949,
6477.000,6.90608,
6476.000,6.86032,
6475.000,6.81538,
6474.000,6.77288,
6473.000,6.73082,
6472.000,6.68699,
6471.000,6.64217,
6470.000,6.59862,
6469.000,6.55717,
6468.000,6.51674,
6467.000,6.47635,
6466.000,6.43636,
6465.000,6.39738,
6464.000,6.35871,
6463.000,6.31887,
6462.000,6.27766,
6461.000,6.23678,
6460.000,6.19759,
6459.000,6.15938,
6458.000,6.12084,
6457.000,6.08198,
6456.000,6.04311,
6455.000,6.0031,
6454.000,5.96124,
6453.000,5.91993,
6452.000,5.88252,
6451.000,5.84847,
6450.000,5.81327,
6449.000,5.77405,
6448.000,5.73244,
6447.000,5.69145,
6446.000,5.65192,
6445.000,5.61368,
6444.000,5.57747,
6443.000,5.54385,
6442.000,5.51143,
6441.000,5.47767,
6440.000,5.44106,
6439.000,5.40206,
6438.000,5.36292,
6437.000,5.32678,
6436.000,5.29516,
6435.000,5.26628,
6434.000,5.23682,
6433.000,5.20536,
6432.000,5.17246,
6431.000,5.1381,
6430.000,5.1019,
6429.000,5.06569,
6428.000,5.03239,
6427.000,5.00168,
6426.000,4.97002,
6425.000,4.93563,
6424.000,4.90074,
6423.000,4.86763,
6422.000,4.83599,
6421.000,4.8057,
6420.000,4.77853,
6419.000,4.75464,
6418.000,4.73007,
6417.000,4.70069,
6416.000,4.66682,
6415.000,4.63146,
6414.000,4.59621,
6413.000,4.56164,
6412.000,4.52951,
6411.000,4.5014,
6410.000,4.47593,
6409.000,4.45019,
6408.000,4.42307,
6407.000,4.39523,
6406.000,4.36673,
6405.000,4.33743,
6404.000,4.30868,
6403.000,4.28183,
6402.000,4.25566,
6401.000,4.2278,
6400.000,4.19852,
6399.000,4.17064,
6398.000,4.14573,
6397.000,4.12252,
6396.000,4.09913,
6395.000,4.07502,
6394.000,4.05034,
6393.000,4.02527,
6392.000,4.00032,
6391.000,3.9763,
6390.000,3.95376,
6389.000,3.93317,
6388.000,3.91475,
6387.000,3.89693,
6386.000,3.87611,
6385.000,3.85012,
6384.000,3.82134,
6383.000,3.79444,
6382.000,3.771,
6381.000,3.74872,
6380.000,3.7254,
6379.000,3.7011,
6378.000,3.67556,
6377.000,3.64686,
6376.000,3.61466,
6375.000,3.58283,
6374.000,3.55613,
6373.000,3.53513,
6372.000,3.51669,
6371.000,3.4989,
6370.000,3.48275,
6369.000,3.4683,
6368.000,3.45222,
6367.000,3.43122,
6366.000,3.40707,
6365.000,3.3851,
6364.000,3.36788,
6363.000,3.35228,
6362.000,3.33402,
6361.000,3.31313,
6360.000,3.29303,
6359.000,3.27549,
6358.000,3.25864,
6357.000,3.24059,
6356.000,3.22263,
6355.000,3.20761,
6354.000,3.1962,
6353.000,3.18595,
6352.000,3.17342,
6351.000,3.15659,
6350.000,3.13592,
6349.000,3.11386,
6348.000,3.09336,
6347.000,3.07558,
6346.000,3.05947,
6345.000,3.04364,
6344.000,3.02826,
6343.000,3.01456,
6342.000,3.00274,
6341.000,2.99167,
6340.000,2.98071,
6339.000,2.97134,
6338.000,2.96545,
6337.000,2.96204,
6336.000,2.9566,
6335.000,2.94517,
6334.000,2.92887,
6333.000,2.91289,
6332.000,2.90077,
6331.000,2.89112,
6330.000,2.88077,
6329.000,2.86939,
6328.000,2.85929,
6327.000,2.85158,
6326.000,2.84484,
6325.000,2.83738,
6324.000,2.82902,
6323.000,2.82039,
6322.000,2.812,
6321.000,2.80422,
6320.000,2.79688,
6319.000,2.78934,
6318.000,2.782,
6317.000,2.77742,
6316.000,2.77741,
6315.000,2.77953,
6314.000,2.77881,
6313.000,2.77359,
6312.000,2.76716,
6311.000,2.76268,
6310.000,2.75899,
6309.000,2.75319,
6308.000,2.74515,
6307.000,2.73731,
6306.000,2.7313,
6305.000,2.7266,
6304.000,2.72248,
6303.000,2.71939,
6302.000,2.71844,
6301.000,2.72024,
6300.000,2.72424,
6299.000,2.72878,
6298.000,2.73234,
6297.000,2.73525,
6296.000,2.73931,
6295.000,2.74517,
6294.000,2.7514,
6293.000,2.7568,
6292.000,2.76237,
6291.000,2.7696,
6290.000,2.77772,
6289.000,2.78415,
6288.000,2.7874,
6287.000,2.78868,
6286.000,2.7905,
6285.000,2.79454,
6284.000,2.80037,
6283.000,2.80611,
6282.000,2.81046,
6281.000,2.81438,
6280.000,2.82026,
6279.000,2.82938,
6278.000,2.841,
6277.000,2.85388,
6276.000,2.86747,
6275.000,2.88121,
6274.000,2.89395,
6273.000,2.90468,
6272.000,2.91329,
6271.000,2.92033,
6270.000,2.92729,
6269.000,2.93668,
6268.000,2.95007,
6267.000,2.96583,
6266.000,2.98072,
6265.000,2.99407,
6264.000,3.00796,
6263.000,3.02283,
6262.000,3.0361,
6261.000,3.04674,
6260.000,3.05787,
6259.000,3.07241,
6258.000,3.08864,
6257.000,3.10313,
6256.000,3.11618,
6255.000,3.13052,
6254.000,3.14634,
6253.000,3.1615,
6252.000,3.17647,
6251.000,3.19484,
6250.000,3.21762,
6249.000,3.24054,
6248.000,3.25843,
6247.000,3.27083,
6246.000,3.28154,
6245.000,3.29428,
6244.000,3.30999,
6243.000,3.32771,
6242.000,3.34633,
6241.000,3.36534,
6240.000,3.38453,
6239.000,3.40354,
6238.000,3.42231,
6237.000,3.44205,
6236.000,3.46491,
6235.000,3.49187,
6234.000,3.52123,
6233.000,3.54987,
6232.000,3.57562,
6231.000,3.59818,
6230.000,3.61853,
6229.000,3.63828,
6228.000,3.65889,
6227.000,3.68072,
6226.000,3.70326,
6225.000,3.72658,
6224.000,3.7517,
6223.000,3.77869,
6222.000,3.80602,
6221.000,3.83284,
6220.000,3.86078,
6219.000,3.89161,
6218.000,3.92431,
6217.000,3.95625,
6216.000,3.98652,
6215.000,4.016,
6214.000,4.04459,
6213.000,4.07064,
6212.000,4.09351,
6211.000,4.11521,
6210.000,4.13903,
6209.000,4.16728,
6208.000,4.20032,
6207.000,4.2366,
6206.000,4.27331,
6205.000,4.30811,
6204.000,4.34026,
6203.000,4.37007,
6202.000,4.39781,
6201.000,4.42423,
6200.000,4.4517,
6199.000,4.4831,
6198.000,4.51922,
6197.000,4.55786,
6196.000,4.59589,
6195.000,4.63162,
6194.000,4.66543,
6193.000,4.69857,
6192.000,4.73193,
6191.000,4.76592,
6190.000,4.80138,
6189.000,4.83962,
6188.000,4.88046,
6187.000,4.92095,
6186.000,4.95791,
6185.000,4.99194,
6184.000,5.02708,
6183.000,5.06617,
6182.000,5.1084,
6181.000,5.15174,
6180.000,5.19549,
6179.000,5.23878,
6178.000,5.27927,
6177.000,5.3155,
6176.000,5.34956,
6175.000,5.3857,
6174.000,5.42663,
6173.000,5.4725,
6172.000,5.52167,
6171.000,5.57131,
6170.000,5.6185,
6169.000,5.66236,
6168.000,5.70466,
6167.000,5.74714,
6166.000,5.78991,
6165.000,5.83333,
6164.000,5.87939,
6163.000,5.9294,
6162.000,5.98133,
6161.000,6.03216,
6160.000,6.08158,
6159.000,6.13159,
6158.000,6.18271,
6157.000,6.23313,
6156.000,6.28141,
6155.000,6.32839,
6154.000,6.37628,
6153.000,6.42673,
6152.000,6.47962,
6151.000,6.53327,
6150.000,6.58641,
6149.000,6.64001,
6148.000,6.6957,
6147.000,6.75248,
6146.000,6.80723,
6145.000,6.85929,
6144.000,6.91207,
6143.000,6.96839,
6142.000,7.02685,
6141.000,7.08494,
6140.000,7.14334,
6139.000,7.204,
6138.000,7.26609,
6137.000,7.32726,
6136.000,7.38805,
6135.000,7.45157,
6134.000,7.5189,
6133.000,7.58815,
6132.000,7.65754,
6131.000,7.72648,
6130.000,7.79341,
6129.000,7.85573,
6128.000,7.91324,
6127.000,7.96924,
6126.000,8.02705,
6125.000,8.08715,
6124.000,8.14895,
6123.000,8.21355,
6122.000,8.28292,
6121.000,8.35672,
6120.000,8.43182,
6119.000,8.50531,
6118.000,8.57702,
6117.000,8.64813,
6116.000,8.71822,
6115.000,8.7857,
6114.000,8.85129,
6113.000,8.919,
6112.000,8.99195,
6111.000,9.06845,
6110.000,9.14456,
6109.000,9.21932,
6108.000,9.29482,
6107.000,9.37185,
6106.000,9.44865,
6105.000,9.52414,
6104.000,9.59944,
6103.000,9.67529,
6102.000,9.75067,
6101.000,9.82473,
6100.000,9.89772,
6099.000,9.96928,
6098.000,10.0386,
6097.000,10.1069,
6096.000,10.1771,
6095.000,10.2498,
6094.000,10.3224,
6093.000,10.3927,
6092.000,10.462,
6091.000,10.5319,
6090.000,10.6029,
6089.000,10.6745,
6088.000,10.7461,
6087.000,10.8165,
6086.000,10.884,
6085.000,10.9487,
6084.000,11.0117,
6083.000,11.0721,
6082.000,11.1288,
6081.000,11.1845,
6080.000,11.2442,
6079.000,11.3085,
6078.000,11.3721,
6077.000,11.4305,
6076.000,11.4839,
6075.000,11.5331,
6074.000,11.5767,
6073.000,11.6143,
6072.000,11.6494,
6071.000,11.6856,
6070.000,11.7231,
6069.000,11.76,
6068.000,11.7958,
6067.000,11.8302,
6066.000,11.8612,
6065.000,11.8882,
6064.000,11.913,
6063.000,11.9372,
6062.000,11.9597,
6061.000,11.9783,
6060.000,11.9916,
6059.000,11.9989,
6058.000,12.0004,
6057.000,11.9994,
6056.000,12,
6055.000,12.0035,
6054.000,12.0073,
6053.000,12.0094,
6052.000,12.0088,
6051.000,12.0038,
6050.000,11.9916,
6049.000,11.9731,
6048.000,11.9533,
6047.000,11.9352,
6046.000,11.9164,
6045.000,11.8934,
6044.000,11.8662,
6043.000,11.8362,
6042.000,11.8043,
6041.000,11.7717,
6040.000,11.7405,
6039.000,11.7111,
6038.000,11.6803,
6037.000,11.6447,
6036.000,11.6029,
6035.000,11.5552,
6034.000,11.5029,
6033.000,11.4498,
6032.000,11.3999,
6031.000,11.3536,
6030.000,11.309,
6029.000,11.2655,
6028.000,11.224,
6027.000,11.1827,
6026.000,11.1366,
6025.000,11.0835,
6024.000,11.026,
6023.000,10.9675,
6022.000,10.9095,
6021.000,10.8531,
6020.000,10.8001,
6019.000,10.7498,
6018.000,10.6986,
6017.000,10.6433,
6016.000,10.5838,
6015.000,10.5218,
6014.000,10.4593,
6013.000,10.3986,
6012.000,10.3413,
6011.000,10.2864,
6010.000,10.2316,
6009.000,10.1763,
6008.000,10.1206,
6007.000,10.0628,
6006.000,10.001,
6005.000,9.93714,
6004.000,9.87485,
6003.000,9.81422,
6002.000,9.7525,
6001.000,9.68998,
6000.000,9.6302,
5999.000,9.57395,
5998.000,9.51794,
5997.000,9.4604,
5996.000,9.40331,
5995.000,9.34776,
5994.000,9.29175,
5993.000,9.23442,
5992.000,9.17782,
5991.000,9.12263,
5990.000,9.06612,
5989.000,9.00665,
5988.000,8.9464,
5987.000,8.88759,
5986.000,8.82947,
5985.000,8.77097,
5984.000,8.71297,
5983.000,8.65602,
5982.000,8.59875,
5981.000,8.54093,
5980.000,8.48481,
5979.000,8.43176,
5978.000,8.37996,
5977.000,8.32718,
5976.000,8.27296,
5975.000,8.21671,
5974.000,8.15711,
5973.000,8.09521,
5972.000,8.03523,
5971.000,7.98003,
5970.000,7.9286,
5969.000,7.8792,
5968.000,7.83187,
5967.000,7.78587,
5966.000,7.73811,
5965.000,7.6865,
5964.000,7.63273,
5963.000,7.57942,
5962.000,7.52697,
5961.000,7.47508,
5960.000,7.42466,
5959.000,7.37598,
5958.000,7.32701,
5957.000,7.27614,
5956.000,7.22475,
5955.000,7.17503,
5954.000,7.12694,
5953.000,7.07897,
5952.000,7.03032,
5951.000,6.98062,
5950.000,6.9292,
5949.000,6.87618,
5948.000,6.8232,
5947.000,6.77181,
5946.000,6.72241,
5945.000,6.67539,
5944.000,6.63089,
5943.000,6.58698,
5942.000,6.54065,
5941.000,6.49165,
5940.000,6.44306,
5939.000,6.39657,
5938.000,6.35029,
5937.000,6.30255,
5936.000,6.25523,
5935.000,6.21081,
5934.000,6.16829,
5933.000,6.12465,
5932.000,6.07879,
5931.000,6.0319,
5930.000,5.98522,
5929.000,5.93937,
5928.000,5.89495,
5927.000,5.85175,
5926.000,5.80845,
5925.000,5.76416,
5924.000,5.71984,
5923.000,5.6769,
5922.000,5.63538,
5921.000,5.59447,
5920.000,5.55376,
5919.000,5.51336,
5918.000,5.47362,
5917.000,5.43516,
5916.000,5.39813,
5915.000,5.36113,
5914.000,5.32223,
5913.000,5.28114,
5912.000,5.23888,
5911.000,5.19576,
5910.000,5.15181,
5909.000,5.10928,
5908.000,5.07147,
5907.000,5.03818,
5906.000,5.00513,
5905.000,4.96879,
5904.000,4.92981,
5903.000,4.89044,
5902.000,4.85141,
5901.000,4.81309,
5900.000,4.77692,
5899.000,4.7436,
5898.000,4.71158,
5897.000,4.67894,
5896.000,4.64565,
5895.000,4.61238,
5894.000,4.57896,
5893.000,4.54499,
5892.000,4.51058,
5891.000,4.47538,
5890.000,4.43856,
5889.000,4.40092,
5888.000,4.36485,
5887.000,4.33126,
5886.000,4.2986,
5885.000,4.26615,
5884.000,4.23561,
5883.000,4.20757,
5882.000,4.1791,
5881.000,4.14723,
5880.000,4.1126,
5879.000,4.07775,
5878.000,4.0435,
5877.000,4.00978,
5876.000,3.97788,
5875.000,3.94901,
5874.000,3.9217,
5873.000,3.89343,
5872.000,3.86402,
5871.000,3.83511,
5870.000,3.8071,
5869.000,3.7789,
5868.000,3.75025,
5867.000,3.72188,
5866.000,3.69372,
5865.000,3.66477,
5864.000,3.63473,
5863.000,3.60443,
5862.000,3.57491,
5861.000,3.54742,
5860.000,3.52332,
5859.000,3.50243,
5858.000,3.48229,
5857.000,3.4603,
5856.000,3.43604,
5855.000,3.41004,
5854.000,3.3817,
5853.000,3.35023,
5852.000,3.31695,
5851.000,3.28436,
5850.000,3.25353,
5849.000,3.22426,
5848.000,3.19719,
5847.000,3.17377,
5846.000,3.15414,
5845.000,3.13657,
5844.000,3.11895,
5843.000,3.09986,
5842.000,3.07871,
5841.000,3.05603,
5840.000,3.03307,
5839.000,3.01009,
5838.000,2.98569,
5837.000,2.95917,
5836.000,2.93235,
5835.000,2.9074,
5834.000,2.88422,
5833.000,2.86167,
5832.000,2.84031,
5831.000,2.82119,
5830.000,2.80278,
5829.000,2.78243,
5828.000,2.76048,
5827.000,2.74008,
5826.000,2.72248,
5825.000,2.70532,
5824.000,2.68642,
5823.000,2.66679,
5822.000,2.64871,
5821.000,2.63289,
5820.000,2.61859,
5819.000,2.60471,
5818.000,2.5896,
5817.000,2.57139,
5816.000,2.54998,
5815.000,2.52769,
5814.000,2.50712,
5813.000,2.48914,
5812.000,2.47327,
5811.000,2.4586,
5810.000,2.44359,
5809.000,2.42649,
5808.000,2.40758,
5807.000,2.38969,
5806.000,2.37553,
5805.000,2.36501,
5804.000,2.35585,
5803.000,2.34611,
5802.000,2.33493,
5801.000,2.3218,
5800.000,2.30708,
5799.000,2.29274,
5798.000,2.2812,
5797.000,2.27294,
5796.000,2.26604,
5795.000,2.2583,
5794.000,2.24896,
5793.000,2.23823,
5792.000,2.22628,
5791.000,2.21323,
5790.000,2.20001,
5789.000,2.18829,
5788.000,2.17939,
5787.000,2.17326,
5786.000,2.1686,
5785.000,2.16379,
5784.000,2.15755,
5783.000,2.14911,
5782.000,2.13856,
5781.000,2.12734,
5780.000,2.11797,
5779.000,2.11226,
5778.000,2.10993,
5777.000,2.1091,
5776.000,2.1081,
5775.000,2.10626,
5774.000,2.10304,
5773.000,2.09731,
5772.000,2.08836,
5771.000,2.07717,
5770.000,2.06624,
5769.000,2.0578,
5768.000,2.05239,
5767.000,2.04961,
5766.000,2.04958,
5765.000,2.05268,
5764.000,2.05779,
5763.000,2.06208,
5762.000,2.06349,
5761.000,2.0627,
5760.000,2.06131,
5759.000,2.05877,
5758.000,2.05315,
5757.000,2.04513,
5756.000,2.03887,
5755.000,2.03763,
5754.000,2.04038,
5753.000,2.04395,
5752.000,2.04688,
5751.000,2.0493,
5750.000,2.0505,
5749.000,2.04937,
5748.000,2.04728,
5747.000,2.04789,
5746.000,2.05352,
5745.000,2.06277,
5744.000,2.07234,
5743.000,2.07991,
5742.000,2.08471,
5741.000,2.08671,
5740.000,2.0866,
5739.000,2.08601,
5738.000,2.08712,
5737.000,2.09127,
5736.000,2.09799,
5735.000,2.10511,
5734.000,2.1103,
5733.000,2.1131,
5732.000,2.1155,
5731.000,2.12011,
5730.000,2.12793,
5729.000,2.13828,
5728.000,2.15018,
5727.000,2.16294,
5726.000,2.17551,
5725.000,2.18636,
5724.000,2.19427,
5723.000,2.199,
5722.000,2.20137,
5721.000,2.20308,
5720.000,2.20615,
5719.000,2.21195,
5718.000,2.22058,
5717.000,2.2315,
5716.000,2.24441,
5715.000,2.25904,
5714.000,2.27454,
5713.000,2.28995,
5712.000,2.30504,
5711.000,2.31993,
5710.000,2.33397,
5709.000,2.34603,
5708.000,2.35598,
5707.000,2.3656,
5706.000,2.37727,
5705.000,2.39205,
5704.000,2.40879,
5703.000,2.42534,
5702.000,2.44066,
5701.000,2.45585,
5700.000,2.47242,
5699.000,2.4901,
5698.000,2.507,
5697.000,2.5223,
5696.000,2.53729,
5695.000,2.55341,
5694.000,2.5705,
5693.000,2.58792,
5692.000,2.60607,
5691.000,2.62551,
5690.000,2.64536,
5689.000,2.66395,
5688.000,2.68093,
5687.000,2.69778,
5686.000,2.71621,
5685.000,2.73663,
5684.000,2.7581,
5683.000,2.77939,
5682.000,2.80019,
5681.000,2.82137,
5680.000,2.84348,
5679.000,2.86539,
5678.000,2.88572,
5677.000,2.90546,
5676.000,2.92747,
5675.000,2.95273,
5674.000,2.97921,
5673.000,3.00496,
5672.000,3.03046,
5671.000,3.05639,
5670.000,3.08135,
5669.000,3.10404,
5668.000,3.12608,
5667.000,3.15026,
5666.000,3.17684,
5665.000,3.2036,
5664.000,3.22915,
5663.000,3.25397,
5662.000,3.27899,
5661.000,3.30485,
5660.000,3.33236,
5659.000,3.36196,
5658.000,3.39281,
5657.000,3.42377,
5656.000,3.45462,
5655.000,3.48501,
5654.000,3.51332,
5653.000,3.53847,
5652.000,3.5622,
5651.000,3.58743,
5650.000,3.61501,
5649.000,3.6442,
5648.000,3.67514,
5647.000,3.70847,
5646.000,3.74274,
5645.000,3.77516,
5644.000,3.80522,
5643.000,3.83536,
5642.000,3.86751,
5641.000,3.90132,
5640.000,3.93621,
5639.000,3.97267,
5638.000,4.01054,
5637.000,4.04791,
5636.000,4.08315,
5635.000,4.11669,
5634.000,4.15001,
5633.000,4.18415,
5632.000,4.21977,
5631.000,4.25756,
5630.000,4.29765,
5629.000,4.33931,
5628.000,4.38164,
5627.000,4.42368,
5626.000,4.46385,
5625.000,4.50068,
5624.000,4.53453,
5623.000,4.56754,
5622.000,4.60155,
5621.000,4.63733,
5620.000,4.67573,
5619.000,4.71783,
5618.000,4.7631,
5617.000,4.80895,
5616.000,4.85321,
5615.000,4.89624,
5614.000,4.93976,
5613.000,4.98451,
5612.000,5.02996,
5611.000,5.07558,
5610.000,5.12123,
5609.000,5.16671,
5608.000,5.21172,
5607.000,5.25633,
5606.000,5.30096,
5605.000,5.34605,
5604.000,5.39196,
5603.000,5.439,
5602.000,5.48725,
5601.000,5.53649,
5600.000,5.58657,
5599.000,5.63756,
5598.000,5.68945,
5597.000,5.74189,
5596.000,5.79444,
5595.000,5.84702,
5594.000,5.89977,
5593.000,5.95263,
5592.000,6.00531,
5591.000,6.05796,
5590.000,6.11157,
5589.000,6.16716,
5588.000,6.22429,
5587.000,6.28131,
5586.000,6.33736,
5585.000,6.39366,
5584.000,6.45169,
5583.000,6.51093,
5582.000,6.56969,
5581.000,6.6278,
5580.000,6.68683,
5579.000,6.7476,
5578.000,6.80929,
5577.000,6.87136,
5576.000,6.93463,
5575.000,6.99942,
5574.000,7.06441,
5573.000,7.1284,
5572.000,7.19218,
5571.000,7.25745,
5570.000,7.3248,
5569.000,7.39348,
5568.000,7.46267,
5567.000,7.5318,
5566.000,7.60043,
5565.000,7.66861,
5564.000,7.73706,
5563.000,7.80655,
5562.000,7.87728,
5561.000,7.9492,
5560.000,8.02212,
5559.000,8.09538,
5558.000,8.16807,
5557.000,8.24001,
5556.000,8.31182,
5555.000,8.38395,
5554.000,8.45638,
5553.000,8.52915,
5552.000,8.60224,
5551.000,8.67499,
5550.000,8.74688,
5549.000,8.81874,
5548.000,8.89174,
5547.000,8.96539,
5546.000,9.03804,
5545.000,9.10919,
5544.000,9.17973,
5543.000,9.24986,
5542.000,9.31881,
5541.000,9.38703,
5540.000,9.45636,
5539.000,9.52759,
5538.000,9.59941,
5537.000,9.67038,
5536.000,9.73994,
5535.000,9.8071,
5534.000,9.87052,
5533.000,9.93054,
5532.000,9.98952,
5531.000,10.0491,
5530.000,10.1087,
5529.000,10.1665,
5528.000,10.2218,
5527.000,10.2737,
5526.000,10.3221,
5525.000,10.3678,
5524.000,10.4126,
5523.000,10.4568,
5522.000,10.499,
5521.000,10.539,
5520.000,10.5775,
5519.000,10.6145,
5518.000,10.6492,
5517.000,10.6819,
5516.000,10.7135,
5515.000,10.743,
5514.000,10.7682,
5513.000,10.7887,
5512.000,10.8061,
5511.000,10.8209,
5510.000,10.8319,
5509.000,10.8387,
5508.000,10.8427,
5507.000,10.8445,
5506.000,10.8425,
5505.000,10.836,
5504.000,10.8269,
5503.000,10.8166,
5502.000,10.8047,
5501.000,10.7907,
5500.000,10.7754,
5499.000,10.7594,
5498.000,10.7415,
5497.000,10.7207,
5496.000,10.6977,
5495.000,10.6729,
5494.000,10.6452,
5493.000,10.6144,
5492.000,10.5819,
5491.000,10.5475,
5490.000,10.509,
5489.000,10.4653,
5488.000,10.4183,
5487.000,10.3711,
5486.000,10.3245,
5485.000,10.2778,
5484.000,10.2308,
5483.000,10.1832,
5482.000,10.1341,
5481.000,10.0829,
5480.000,10.0307,
5479.000,9.97907,
5478.000,9.92789,
5477.000,9.87564,
5476.000,9.82171,
5475.000,9.76674,
5474.000,9.71121,
5473.000,9.65482,
5472.000,9.59727,
5471.000,9.5389,
5470.000,9.48026,
5469.000,9.4216,
5468.000,9.36281,
5467.000,9.30351,
5466.000,9.24349,
5465.000,9.18323,
5464.000,9.12349,
5463.000,9.06422,
5462.000,9.00446,
5461.000,8.94364,
5460.000,8.88194,
5459.000,8.81968,
5458.000,8.75727,
5457.000,8.69571,
5456.000,8.63586,
5455.000,8.57702,
5454.000,8.51766,
5453.000,8.45741,
5452.000,8.39727,
5451.000,8.33801,
5450.000,8.27968,
5449.000,8.22237,
5448.000,8.16592,
5447.000,8.10921,
5446.000,8.05154,
5445.000,7.99426,
5444.000,7.93913,
5443.000,7.8852,
5442.000,7.82959,
5441.000,7.77114,
5440.000,7.71132,
5439.000,7.65143,
5438.000,7.59148,
5437.000,7.53178,
5436.000,7.4736,
5435.000,7.41732,
5434.000,7.36163,
5433.000,7.3057,
5432.000,7.25039,
5431.000,7.19675,
5430.000,7.14474,
5429.000,7.09387,
5428.000,7.04349,
5427.000,6.99202,
5426.000,6.93763,
5425.000,6.88041,
5424.000,6.82255,
5423.000,6.7658,
5422.000,6.70993,
5421.000,6.65395,
5420.000,6.59742,
5419.000,6.54043,
5418.000,6.48368,
5417.000,6.42908,
5416.000,6.37908,
5415.000,6.33442,
5414.000,6.29285,
5413.000,6.25095,
5412.000,6.20686,
5411.000,6.16068,
5410.000,6.11327,
5409.000,6.06512,
5408.000,6.01594,
5407.000,5.96513,
5406.000,5.91258,
5405.000,5.85898,
5404.000,5.80522,
5403.000,5.75187,
5402.000,5.69969,
5401.000,5.64998,
5400.000,5.60314,
5399.000,5.55765,
5398.000,5.51144,
5397.000,5.46433,
5396.000,5.4179,
5395.000,5.37322,
5394.000,5.32983,
5393.000,5.28693,
5392.000,5.24415,
5391.000,5.20107,
5390.000,5.15752,
5389.000,5.11425,
5388.000,5.07197,
5387.000,5.0302,
5386.000,4.98752,
5385.000,4.94318,
5384.000,4.89778,
5383.000,4.85254,
5382.000,4.80862,
5381.000,4.7671,
5380.000,4.72811,
5379.000,4.68991,
5378.000,4.6503,
5377.000,4.60897,
5376.000,4.56755,
5375.000,4.52729,
5374.000,4.48768,
5373.000,4.44782,
5372.000,4.4077,
5371.000,4.36762,
5370.000,4.32762,
5369.000,4.28821,
5368.000,4.25031,
5367.000,4.21376,
5366.000,4.17705,
5365.000,4.13914,
5364.000,4.10065,
5363.000,4.06286,
5362.000,4.02639,
5361.000,3.99102,
5360.000,3.95626,
5359.000,3.92155,
5358.000,3.88681,
5357.000,3.85286,
5356.000,3.82051,
5355.000,3.78919,
5354.000,3.75744,
5353.000,3.72489,
5352.000,3.69249,
5351.000,3.6607,
5350.000,3.62899,
5349.000,3.59705,
5348.000,3.56503,
5347.000,3.53259,
5346.000,3.49921,
5345.000,3.46558,
5344.000,3.43347,
5343.000,3.40348,
5342.000,3.37432,
5341.000,3.34474,
5340.000,3.3151,
5339.000,3.28617,
5338.000,3.25792,
5337.000,3.23019,
5336.000,3.20313,
5335.000,3.17624,
5334.000,3.14824,
5333.000,3.11869,
5332.000,3.08843,
5331.000,3.05809,
5330.000,3.0273,
5329.000,2.99604,
5328.000,2.96578,
5327.000,2.93809,
5326.000,2.9127,
5325.000,2.88763,
5324.000,2.86094,
5323.000,2.83201,
5322.000,2.80184,
5321.000,2.77257,
5320.000,2.74591,
5319.000,2.72156,
5318.000,2.69747,
5317.000,2.67223,
5316.000,2.64629,
5315.000,2.62062,
5314.000,2.59511,
5313.000,2.56903,
5312.000,2.5422,
5311.000,2.51489,
5310.000,2.48741,
5309.000,2.46067,
5308.000,2.43635,
5307.000,2.41537,
5306.000,2.39639,
5305.000,2.37698,
5304.000,2.35599,
5303.000,2.33374,
5302.000,2.31073,
5301.000,2.28725,
5300.000,2.26399,
5299.000,2.24181,
5298.000,2.22081,
5297.000,2.20046,
5296.000,2.18044,
5295.000,2.16068,
5294.000,2.1406,
5293.000,2.11955,
5292.000,2.09799,
5291.000,2.07719,
5290.000,2.05771,
5289.000,2.03879,
5288.000,2.01969,
5287.000,2.00048,
5286.000,1.98152,
5285.000,1.9628,
5284.000,1.94448,
5283.000,1.92708,
5282.000,1.91086,
5281.000,1.89533,
5280.000,1.88002,
5279.000,1.86514,
5278.000,1.85102,
5277.000,1.83718,
5276.000,1.82264,
5275.000,1.80695,
5274.000,1.7906,
5273.000,1.77457,
5272.000,1.75963,
5271.000,1.74587,
5270.000,1.73275,
5269.000,1.71977,
5268.000,1.7071,
5267.000,1.69526,
5266.000,1.68435,
5265.000,1.67379,
5264.000,1.66287,
5263.000,1.65127,
5262.000,1.63893,
5261.000,1.62615,
5260.000,1.61369,
5259.000,1.60228,
5258.000,1.59163,
5257.000,1.58064,
5256.000,1.56898,
5255.000,1.55805,
5254.000,1.54946,
5253.000,1.54313,
5252.000,1.53729,
5251.000,1.53019,
5250.000,1.52135,
5249.000,1.5112,
5248.000,1.50065,
5247.000,1.49089,
5246.000,1.48302,
5245.000,1.47705,
5244.000,1.47168,
5243.000,1.46552,
5242.000,1.45857,
5241.000,1.45202,
5240.000,1.44681,
5239.000,1.44257,
5238.000,1.43828,
5237.000,1.43339,
5236.000,1.42794,
5235.000,1.42192,
5234.000,1.41527,
5233.000,1.4087,
5232.000,1.40369,
5231.000,1.40099,
5230.000,1.39969,
5229.000,1.39819,
5228.000,1.3958,
5227.000,1.39278,
5226.000,1.38935,
5225.000,1.38579,
5224.000,1.38315,
5223.000,1.38249,
5222.000,1.38317,
5221.000,1.38282,
5220.000,1.37962,
5219.000,1.37403,
5218.000,1.36821,
5217.000,1.36413,
5216.000,1.36266,
5215.000,1.36344,
5214.000,1.36505,
5213.000,1.3658,
5212.000,1.36512,
5211.000,1.36426,
5210.000,1.36495,
5209.000,1.3674,
5208.000,1.37019,
5207.000,1.37172,
5206.000,1.37124,
5205.000,1.36875,
5204.000,1.36506,
5203.000,1.362,
5202.000,1.3615,
5201.000,1.36384,
5200.000,1.36741,
5199.000,1.37034,
5198.000,1.37184,
5197.000,1.37205,
5196.000,1.37149,
5195.000,1.3712,
5194.000,1.37267,
5193.000,1.37655,
5192.000,1.38176,
5191.000,1.3866,
5190.000,1.39062,
5189.000,1.39495,
5188.000,1.40068,
5187.000,1.40754,
5186.000,1.41421,
5185.000,1.41956,
5184.000,1.42322,
5183.000,1.42548,
5182.000,1.42712,
5181.000,1.42916,
5180.000,1.4324,
5179.000,1.43709,
5178.000,1.44299,
5177.000,1.44963,
5176.000,1.45656,
5175.000,1.46334,
5174.000,1.4697,
5173.000,1.4756,
5172.000,1.4812,
5171.000,1.48681,
5170.000,1.49293,
5169.000,1.50008,
5168.000,1.5084,
5167.000,1.51748,
5166.000,1.52678,
5165.000,1.53591,
5164.000,1.5446,
5163.000,1.55251,
5162.000,1.55972,
5161.000,1.56701,
5160.000,1.57543,
5159.000,1.58554,
5158.000,1.59706,
5157.000,1.60915,
5156.000,1.62076,
5155.000,1.63098,
5154.000,1.63955,
5153.000,1.64706,
5152.000,1.65445,
5151.000,1.66256,
5150.000,1.67221,
5149.000,1.68424,
5148.000,1.6987,
5147.000,1.71437,
5146.000,1.72969,
5145.000,1.74392,
5144.000,1.75705,
5143.000,1.7688,
5142.000,1.77906,
5141.000,1.78924,
5140.000,1.80178,
5139.000,1.81773,
5138.000,1.83541,
5137.000,1.85228,
5136.000,1.86724,
5135.000,1.88085,
5134.000,1.89426,
5133.000,1.9088,
5132.000,1.92573,
5131.000,1.945,
5130.000,1.96441,
5129.000,1.98135,
5128.000,1.99554,
5127.000,2.00941,
5126.000,2.02559,
5125.000,2.0447,
5124.000,2.06565,
5123.000,2.087,
5122.000,2.10764,
5121.000,2.12677,
5120.000,2.14433,
5119.000,2.16119,
5118.000,2.17864,
5117.000,2.19755,
5116.000,2.21797,
5115.000,2.23946,
5114.000,2.26141,
5113.000,2.2834,
5112.000,2.30527,
5111.000,2.32721,
5110.000,2.34948,
5109.000,2.37219,
5108.000,2.39508,
5107.000,2.41784,
5106.000,2.44053,
5105.000,2.46365,
5104.000,2.48757,
5103.000,2.5121,
5102.000,2.53685,
5101.000,2.56184,
5100.000,2.58734,
5099.000,2.61341,
5098.000,2.63991,
5097.000,2.66688,
5096.000,2.69425,
5095.000,2.72137,
5094.000,2.74757,
5093.000,2.77322,
5092.000,2.79944,
5091.000,2.82656,
5090.000,2.85385,
5089.000,2.88108,
5088.000,2.90921,
5087.000,2.93898,
5086.000,2.9698,
5085.000,3.00076,
5084.000,3.0319,
5083.000,3.06344,
5082.000,3.09455,
5081.000,3.12421,
5080.000,3.15298,
5079.000,3.18264,
5078.000,3.21405,
5077.000,3.24657,
5076.000,3.27938,
5075.000,3.31234,
5074.000,3.34535,
5073.000,3.3781,
5072.000,3.41083,
5071.000,3.4445,
5070.000,3.4795,
5069.000,3.51481,
5068.000,3.54912,
5067.000,3.58247,
5066.000,3.6163,
5065.000,3.65207,
5064.000,3.69016,
5063.000,3.72975,
5062.000,3.76939,
5061.000,3.80778,
5060.000,3.8447,
5059.000,3.88118,
5058.000,3.91869,
5057.000,3.95779,
5056.000,3.99793,
5055.000,4.03821,
5054.000,4.07842,
5053.000,4.11901,
5052.000,4.16054,
5051.000,4.20318,
5050.000,4.24679,
5049.000,4.29096,
5048.000,4.33515,
5047.000,4.37906,
5046.000,4.42298,
5045.000,4.46753,
5044.000,4.51286,
5043.000,4.55866,
5042.000,4.6048,
5041.000,4.65145,
5040.000,4.69825,
5039.000,4.74415,
5038.000,4.78873,
5037.000,4.83323,
5036.000,4.87953,
5035.000,4.92841,
5034.000,4.97934,
5033.000,5.03151,
5032.000,5.08411,
5031.000,5.13626,
5030.000,5.18761,
5029.000,5.23901,
5028.000,5.2916,
5027.000,5.34523,
5026.000,5.39899,
5025.000,5.45292,
5024.000,5.50812,
5023.000,5.56512,
5022.000,5.62327,
5021.000,5.68185,
5020.000,5.74076,
5019.000,5.79982,
5018.000,5.85877,
5017.000,5.91812,
5016.000,5.9788,
5015.000,6.04066,
5014.000,6.10241,
5013.000,6.1635,
5012.000,6.22481,
5011.000,6.2871,
5010.000,6.3498,
5009.000,6.41232,
5008.000,6.47515,
5007.000,6.53887,
5006.000,6.60303,
5005.000,6.66705,
5004.000,6.73135,
5003.000,6.79685,
5002.000,6.86361,
5001.000,6.93109,
5000.000,6.99883,
4999.000,7.06638,
4998.000,7.13292,
4997.000,7.19814,
4996.000,7.26298,
4995.000,7.32873,
4994.000,7.39576,
4993.000,7.46346,
4992.000,7.53114,
4991.000,7.59837,
4990.000,7.66494,
4989.000,7.73098,
4988.000,7.79681,
4987.000,7.86216,
4986.000,7.92602,
4985.000,7.98748,
4984.000,8.04662,
4983.000,8.10434,
4982.000,8.16151,
4981.000,8.21853,
4980.000,8.27506,
4979.000,8.32995,
4978.000,8.38195,
4977.000,8.43063,
4976.000,8.47647,
4975.000,8.52023,
4974.000,8.56255,
4973.000,8.60383,
4972.000,8.64392,
4971.000,8.68183,
4970.000,8.71657,
4969.000,8.74808,
4968.000,8.77674,
4967.000,8.80254,
4966.000,8.82544,
4965.000,8.84597,
4964.000,8.86459,
4963.000,8.88059,
4962.000,8.89281,
4961.000,8.90112,
4960.000,8.90613,
4959.000,8.90775,
4958.000,8.90535,
4957.000,8.89911,
4956.000,8.89006,
4955.000,8.87874,
4954.000,8.86519,
4953.000,8.85,
4952.000,8.83411,
4951.000,8.81742,
4950.000,8.79866,
4949.000,8.77684,
4948.000,8.75166,
4947.000,8.72283,
4946.000,8.69019,
4945.000,8.65457,
4944.000,8.61731,
4943.000,8.57877,
4942.000,8.53846,
4941.000,8.4964,
4940.000,8.45331,
4939.000,8.40945,
4938.000,8.36445,
4937.000,8.3185,
4936.000,8.2723,
4935.000,8.22582,
4934.000,8.17821,
4933.000,8.12891,
4932.000,8.07806,
4931.000,8.02572,
4930.000,7.97193,
4929.000,7.91753,
4928.000,7.86365,
4927.000,7.81035,
4926.000,7.75669,
4925.000,7.7021,
4924.000,7.64675,
4923.000,7.59079,
4922.000,7.53427,
4921.000,7.47794,
4920.000,7.42288,
4919.000,7.36936,
4918.000,7.31673,
4917.000,7.26439,
4916.000,7.21167,
4915.000,7.15727,
4914.000,7.1001,
4913.000,7.04081,
4912.000,6.98144,
4911.000,6.92366,
4910.000,6.86807,
4909.000,6.81474,
4908.000,6.76304,
4907.000,6.7111,
4906.000,6.65719,
4905.000,6.60179,
4904.000,6.54689,
4903.000,6.49326,
4902.000,6.43969,
4901.000,6.3852,
4900.000,6.33039,
4899.000,6.27627,
4898.000,6.22303,
4897.000,6.17056,
4896.000,6.1187,
4895.000,6.06662,
4894.000,6.0134,
4893.000,5.95965,
4892.000,5.90745,
4891.000,5.85789,
4890.000,5.80956,
4889.000,5.76024,
4888.000,5.70903,
4887.000,5.6564,
4886.000,5.60325,
4885.000,5.55086,
4884.000,5.50073,
4883.000,5.45337,
4882.000,5.40765,
4881.000,5.36189,
4880.000,5.31529,
4879.000,5.26781,
4878.000,5.21963,
4877.000,5.17134,
4876.000,5.12395,
4875.000,5.07797,
4874.000,5.03272,
4873.000,4.98725,
4872.000,4.94136,
4871.000,4.8954,
4870.000,4.84945,
4869.000,4.80344,
4868.000,4.7576,
4867.000,4.71223,
4866.000,4.66726,
4865.000,4.62254,
4864.000,4.57828,
4863.000,4.53473,
4862.000,4.49169,
4861.000,4.44875,
4860.000,4.40599,
4859.000,4.36389,
4858.000,4.32266,
4857.000,4.28207,
4856.000,4.24171,
4855.000,4.20129,
4854.000,4.16067,
4853.000,4.12004,
4852.000,4.07976,
4851.000,4.03995,
4850.000,4.00034,
4849.000,3.96061,
4848.000,3.92094,
4847.000,3.8819,
4846.000,3.84396,
4845.000,3.80707,
4844.000,3.77055,
4843.000,3.73346,
4842.000,3.69533,
4841.000,3.65692,
4840.000,3.6197,
4839.000,3.58451,
4838.000,3.55068,
4837.000,3.51674,
4836.000,3.48174,
4835.000,3.4459,
4834.000,3.41021,
4833.000,3.37551,
4832.000,3.34198,
4831.000,3.30908,
4830.000,3.27615,
4829.000,3.24314,
4828.000,3.21057,
4827.000,3.17883,
4826.000,3.14755,
4825.000,3.1161,
4824.000,3.08426,
4823.000,3.05233,
4822.000,3.02067,
4821.000,2.98926,
4820.000,2.95787,
4819.000,2.92633,
4818.000,2.89464,
4817.000,2.86302,
4816.000,2.8318,
4815.000,2.80134,
4814.000,2.77179,
4813.000,2.74289,
4812.000,2.71411,
4811.000,2.68507,
4810.000,2.65593,
4809.000,2.62724,
4808.000,2.59951,
4807.000,2.57285,
4806.000,2.54701,
4805.000,2.52155,
4804.000,2.49584,
4803.000,2.46928,
4802.000,2.44169,
4801.000,2.41339,
4800.000,2.38481,
4799.000,2.35627,
4798.000,2.32806,
4797.000,2.30062,
4796.000,2.27425,
4795.000,2.24887,
4794.000,2.22421,
4793.000,2.20026,
4792.000,2.17711,
4791.000,2.15465,
4790.000,2.13247,
4789.000,2.11009,
4788.000,2.08704,
4787.000,2.06294,
4786.000,2.03799,
4785.000,2.01316,
4784.000,1.98943,
4783.000,1.96682,
4782.000,1.94433,
4781.000,1.92107,
4780.000,1.89714,
4779.000,1.87343,
4778.000,1.85068,
4777.000,1.82888,
4776.000,1.80736,
4775.000,1.78552,
4774.000,1.76344,
4773.000,1.7419,
4772.000,1.72148,
4771.000,1.70176,
4770.000,1.68173,
4769.000,1.66115,
4768.000,1.64106,
4767.000,1.62284,
4766.000,1.60685,
4765.000,1.59185,
4764.000,1.57583,
4763.000,1.55718,
4762.000,1.53591,
4761.000,1.51386,
4760.000,1.49349,
4759.000,1.47604,
4758.000,1.46059,
4757.000,1.44513,
4756.000,1.42841,
4755.000,1.41097,
4754.000,1.39433,
4753.000,1.37962,
4752.000,1.3667,
4751.000,1.35435,
4750.000,1.34123,
4749.000,1.32684,
4748.000,1.31177,
4747.000,1.29715,
4746.000,1.28362,
4745.000,1.27096,
4744.000,1.25853,
4743.000,1.24601,
4742.000,1.23361,
4741.000,1.22162,
4740.000,1.20998,
4739.000,1.19846,
4738.000,1.18704,
4737.000,1.17591,
4736.000,1.16515,
4735.000,1.15456,
4734.000,1.14386,
4733.000,1.13301,
4732.000,1.12237,
4731.000,1.11264,
4730.000,1.10451,
4729.000,1.09806,
4728.000,1.09236,
4727.000,1.08607,
4726.000,1.07853,
4725.000,1.0701,
4724.000,1.06135,
4723.000,1.05243,
4722.000,1.04335,
4721.000,1.03467,
4720.000,1.0272,
4719.000,1.02124,
4718.000,1.0163,
4717.000,1.0114,
4716.000,1.00554,
4715.000,0.998012,
4714.000,0.988943,
4713.000,0.979504,
4712.000,0.971202,
4711.000,0.964816,
4710.000,0.960119,
4709.000,0.956469,
4708.000,0.953243,
4707.000,0.949791,
4706.000,0.945617,
4705.000,0.940869,
4704.000,0.936258,
4703.000,0.932253,
4702.000,0.928688,
4701.000,0.925282,
4700.000,0.92213,
4699.000,0.919409,
4698.000,0.916919,
4697.000,0.914212,
4696.000,0.910976,
4695.000,0.907088,
4694.000,0.902614,
4693.000,0.897996,
4692.000,0.893966,
4691.000,0.890881,
4690.000,0.888271,
4689.000,0.885377,
4688.000,0.882047,
4687.000,0.878831,
4686.000,0.876304,
4685.000,0.874526,
4684.000,0.873095,
4683.000,0.871475,
4682.000,0.869361,
4681.000,0.866989,
4680.000,0.865038,
4679.000,0.864075,
4678.000,0.864036,
4677.000,0.864282,
4676.000,0.86409,
4675.000,0.863045,
4674.000,0.861192,
4673.000,0.859067,
4672.000,0.857469,
4671.000,0.856872,
4670.000,0.856946,
4669.000,0.856783,
4668.000,0.855689,
4667.000,0.853779,
4666.000,0.851868,
4665.000,0.850849,
4664.000,0.851091,
4663.000,0.852248,
4662.000,0.853635,
4661.000,0.854833,
4660.000,0.855931,
4659.000,0.857203,
4658.000,0.858671,
4657.000,0.860032,
4656.000,0.86089,
4655.000,0.860982,
4654.000,0.860355,
4653.000,0.85946,
4652.000,0.858958,
4651.000,0.859236,
4650.000,0.860085,
4649.000,0.860943,
4648.000,0.861467,
4647.000,0.861905,
4646.000,0.862945,
4645.000,0.865236,
4644.000,0.86886,
4643.000,0.873165,
4642.000,0.877145,
4641.000,0.880077,
4640.000,0.881887,
4639.000,0.883069,
4638.000,0.884337,
4637.000,0.886273,
4636.000,0.889023,
4635.000,0.892199,
4634.000,0.895227,
4633.000,0.897889,
4632.000,0.90045,
4631.000,0.903276,
4630.000,0.906542,
4629.000,0.910271,
4628.000,0.914381,
4627.000,0.918584,
4626.000,0.922508,
4625.000,0.92604,
4624.000,0.929419,
4623.000,0.932932,
4622.000,0.93675,
4621.000,0.941073,
4620.000,0.946095,
4619.000,0.951644,
4618.000,0.957178,
4617.000,0.962396,
4616.000,0.967664,
4615.000,0.973596,
4614.000,0.98038,
4613.000,0.987632,
4612.000,0.994692,
4611.000,1.00098,
4610.000,1.00634,
4609.000,1.01136,
4608.000,1.017,
4607.000,1.02361,
4606.000,1.03052,
4605.000,1.03684,
4604.000,1.04257,
4603.000,1.04857,
4602.000,1.05555,
4601.000,1.06351,
4600.000,1.07202,
4599.000,1.08067,
4598.000,1.08916,
4597.000,1.09747,
4596.000,1.10585,
4595.000,1.1146,
4594.000,1.12364,
4593.000,1.13273,
4592.000,1.14179,
4591.000,1.15104,
4590.000,1.16065,
4589.000,1.17053,
4588.000,1.18056,
4587.000,1.19078,
4586.000,1.20132,
4585.000,1.21233,
4584.000,1.2239,
4583.000,1.23596,
4582.000,1.24817,
4581.000,1.26016,
4580.000,1.27193,
4579.000,1.28381,
4578.000,1.29614,
4577.000,1.30902,
4576.000,1.32239,
4575.000,1.33618,
4574.000,1.35027,
4573.000,1.36448,
4572.000,1.37864,
4571.000,1.39275,
4570.000,1.40706,
4569.000,1.42196,
4568.000,1.43781,
4567.000,1.45463,
4566.000,1.47203,
4565.000,1.48944,
4564.000,1.50645,
4563.000,1.52301,
4562.000,1.53945,
4561.000,1.55628,
4560.000,1.57374,
4559.000,1.59146,
4558.000,1.60864,
4557.000,1.6249,
4556.000,1.64072,
4555.000,1.65699,
4554.000,1.67446,
4553.000,1.69348,
4552.000,1.71406,
4551.000,1.73577,
4550.000,1.75766,
4549.000,1.77876,
4548.000,1.79879,
4547.000,1.81824,
4546.000,1.83792,
4545.000,1.85841,
4544.000,1.8799,
4543.000,1.90242,
4542.000,1.92605,
4541.000,1.95095,
4540.000,1.97703,
4539.000,2.00357,
4538.000,2.02936,
4537.000,2.05351,
4536.000,2.0762,
4535.000,2.09855,
4534.000,2.12163,
4533.000,2.14582,
4532.000,2.17077,
4531.000,2.19602,
4530.000,2.22133,
4529.000,2.24666,
4528.000,2.27209,
4527.000,2.29786,
4526.000,2.32445,
4525.000,2.35236,
4524.000,2.38161,
4523.000,2.41164,
4522.000,2.4417,
4521.000,2.47141,
4520.000,2.50094,
4519.000,2.53075,
4518.000,2.56108,
4517.000,2.59168,
4516.000,2.62194,
4515.000,2.65151,
4514.000,2.68076,
4513.000,2.71055,
4512.000,2.74151,
4511.000,2.7736,
4510.000,2.80643,
4509.000,2.83983,
4508.000,2.87386,
4507.000,2.90848,
4506.000,2.9435,
4505.000,2.97861,
4504.000,3.0133,
4503.000,3.04712,
4502.000,3.08025,
4501.000,3.11369,
4500.000,3.14863,
4499.000,3.18552,
4498.000,3.22385,
4497.000,3.26264,
4496.000,3.30095,
4495.000,3.33836,
4494.000,3.37533,
4493.000,3.41297,
4492.000,3.4521,
4491.000,3.49239,
4490.000,3.53281,
4489.000,3.57269,
4488.000,3.61211,
4487.000,3.65171,
4486.000,3.69233,
4485.000,3.73459,
4484.000,3.7785,
4483.000,3.82334,
4482.000,3.86843,
4481.000,3.91365,
4480.000,3.95912,
4479.000,4.00464,
4478.000,4.05006,
4477.000,4.09579,
4476.000,4.14246,
4475.000,4.19017,
4474.000,4.23862,
4473.000,4.28765,
4472.000,4.33719,
4471.000,4.38687,
4470.000,4.43635,
4469.000,4.48602,
4468.000,4.53674,
4467.000,4.58887,
4466.000,4.64195,
4465.000,4.69532,
4464.000,4.74863,
4463.000,4.80193,
4462.000,4.85574,
4461.000,4.91083,
4460.000,4.96732,
4459.000,5.02434,
4458.000,5.08086,
4457.000,5.13692,
4456.000,5.19335,
4455.000,5.25059,
4454.000,5.30852,
4453.000,5.3671,
4452.000,5.42644,
4451.000,5.48619,
4450.000,5.54566,
4449.000,5.60469,
4448.000,5.66369,
4447.000,5.72286,
4446.000,5.782,
4445.000,5.84093,
4444.000,5.89958,
4443.000,5.95761,
4442.000,6.01454,
4441.000,6.07038,
4440.000,6.12556,
4439.000,6.18026,
4438.000,6.23441,
4437.000,6.28808,
4436.000,6.34125,
4435.000,6.3934,
4434.000,6.44396,
4433.000,6.49315,
4432.000,6.54164,
4431.000,6.58927,
4430.000,6.63487,
4429.000,6.67735,
4428.000,6.71634,
4427.000,6.75191,
4426.000,6.78458,
4425.000,6.81557,
4424.000,6.84604,
4423.000,6.87579,
4422.000,6.90337,
4421.000,6.92736,
4420.000,6.94732,
4419.000,6.96334,
4418.000,6.97559,
4417.000,6.98433,
4416.000,6.98986,
4415.000,6.99225,
4414.000,6.99163,
4413.000,6.98848,
4412.000,6.98308,
4411.000,6.97477,
4410.000,6.9625,
4409.000,6.94623,
4408.000,6.92701,
4407.000,6.90574,
4406.000,6.88255,
4405.000,6.85735,
4404.000,6.83019,
4403.000,6.80085,
4402.000,6.76879,
4401.000,6.73384,
4400.000,6.69653,
4399.000,6.65764,
4398.000,6.61772,
4397.000,6.57701,
4396.000,6.53533,
4395.000,6.49196,
4394.000,6.44628,
4393.000,6.39858,
4392.000,6.34988,
4391.000,6.30093,
4390.000,6.25178,
4389.000,6.20226,
4388.000,6.15238,
4387.000,6.10209,
4386.000,6.05135,
4385.000,6.00044,
4384.000,5.94981,
4383.000,5.89951,
4382.000,5.84909,
4381.000,5.79821,
4380.000,5.74673,
4379.000,5.69454,
4378.000,5.64159,
4377.000,5.58842,
4376.000,5.53592,
4375.000,5.48451,
4374.000,5.43377,
4373.000,5.38327,
4372.000,5.33321,
4371.000,5.2842,
4370.000,5.23648,
4369.000,5.18972,
4368.000,5.14345,
4367.000,5.09752,
4366.000,5.05247,
4365.000,5.00918,
4364.000,4.9679,
4363.000,4.92787,
4362.000,4.88793,
4361.000,4.84764,
4360.000,4.80745,
4359.000,4.76764,
4358.000,4.72779,
4357.000,4.68726,
4356.000,4.64596,
4355.000,4.60443,
4354.000,4.56335,
4353.000,4.52297,
4352.000,4.48298,
4351.000,4.44279,
4350.000,4.40224,
4349.000,4.36178,
4348.000,4.32201,
4347.000,4.28291,
4346.000,4.24403,
4345.000,4.20522,
4344.000,4.16687,
4343.000,4.12934,
4342.000,4.09233,
4341.000,4.05515,
4340.000,4.01733,
4339.000,3.97893,
4338.000,3.94042,
4337.000,3.90226,
4336.000,3.86459,
4335.000,3.82722,
4334.000,3.78994,
4333.000,3.75283,
4332.000,3.71599,
4331.000,3.67913,
4330.000,3.64171,
4329.000,3.60347,
4328.000,3.56488,
4327.000,3.52682,
4326.000,3.48986,
4325.000,3.4538,
4324.000,3.41763,
4323.000,3.3803,
4322.000,3.34162,
4321.000,3.30267,
4320.000,3.2649,
4319.000,3.22895,
4318.000,3.19435,
4317.000,3.16017,
4316.000,3.12566,
4315.000,3.09043,
4314.000,3.05455,
4313.000,3.01852,
4312.000,2.9831,
4311.000,2.94859,
4310.000,2.9147,
4309.000,2.88093,
4308.000,2.84717,
4307.000,2.81376,
4306.000,2.7812,
4305.000,2.74971,
4304.000,2.71898,
4303.000,2.68819,
4302.000,2.65661,
4301.000,2.62421,
4300.000,2.59169,
4299.000,2.56001,
4298.000,2.52969,
4297.000,2.5006,
4296.000,2.472,
4295.000,2.44295,
4294.000,2.41303,
4293.000,2.38271,
4292.000,2.35292,
4291.000,2.32408,
4290.000,2.29572,
4289.000,2.26711,
4288.000,2.23817,
4287.000,2.20962,
4286.000,2.18223,
4285.000,2.15613,
4284.000,2.13084,
4283.000,2.10583,
4282.000,2.08109,
4281.000,2.05705,
4280.000,2.03402,
4279.000,2.01165,
4278.000,1.98909,
4277.000,1.96568,
4276.000,1.94144,
4275.000,1.91699,
4274.000,1.89309,
4273.000,1.87022,
4272.000,1.84831,
4271.000,1.82683,
4270.000,1.8053,
4269.000,1.78363,
4268.000,1.7621,
4267.000,1.74086,
4266.000,1.71965,
4265.000,1.69808,
4264.000,1.67615,
4263.000,1.65431,
4262.000,1.63314,
4261.000,1.61282,
4260.000,1.59303,
4259.000,1.57315,
4258.000,1.55281,
4257.000,1.53219,
4256.000,1.5119,
4255.000,1.49224,
4254.000,1.4729,
4253.000,1.45329,
4252.000,1.43329,
4251.000,1.41344,
4250.000,1.39438,
4249.000,1.37619,
4248.000,1.35829,
4247.000,1.34001,
4246.000,1.32117,
4245.000,1.30219,
4244.000,1.28367,
4243.000,1.26585,
4242.000,1.24855,
4241.000,1.23128,
4240.000,1.21372,
4239.000,1.19597,
4238.000,1.17857,
4237.000,1.16207,
4236.000,1.14637,
4235.000,1.13067,
4234.000,1.11418,
4233.000,1.09711,
4232.000,1.08068,
4231.000,1.06608,
4230.000,1.05349,
4229.000,1.04196,
4228.000,1.03022,
4227.000,1.01744,
4226.000,1.00344,
4225.000,0.988482,
4224.000,0.973083,
4223.000,0.957864,
4222.000,0.943463,
4221.000,0.930369,
4220.000,0.918743,
4219.000,0.908313,
4218.000,0.898522,
4217.000,0.888827,
4216.000,0.878953,
4215.000,0.868906,
4214.000,0.858853,
4213.000,0.848976,
4212.000,0.839352,
4211.000,0.829895,
4210.000,0.82047,
4209.000,0.811118,
4208.000,0.802118,
4207.000,0.793729,
4206.000,0.78582,
4205.000,0.77783,
4204.000,0.769168,
4203.000,0.759788,
4202.000,0.750389,
4201.000,0.74197,
4200.000,0.735032,
4199.000,0.729187,
4198.000,0.723532,
4197.000,0.717415,
4196.000,0.710834,
4195.000,0.704279,
4194.000,0.698303,
4193.000,0.693169,
4192.000,0.688599,
4191.000,0.683835,
4190.000,0.678174,
4189.000,0.671634,
4188.000,0.665014,
4187.000,0.659199,
4186.000,0.654438,
4185.000,0.650292,
4184.000,0.646126,
4183.000,0.641517,
4182.000,0.636361,
4181.000,0.630819,
4180.000,0.625243,
4179.000,0.619998,
4178.000,0.615309,
4177.000,0.611262,
4176.000,0.607869,
4175.000,0.605034,
4174.000,0.60244,
4173.000,0.599623,
4172.000,0.596201,
4171.000,0.592139,
4170.000,0.587819,
4169.000,0.583846,
4168.000,0.580679,
4167.000,0.578322,
4166.000,0.576361,
4165.000,0.574292,
4164.000,0.571844,
4163.000,0.569012,
4162.000,0.565941,
4161.000,0.562854,
4160.000,0.560049,
4159.000,0.557768,
4158.000,0.555931,
4157.000,0.554008,
4156.000,0.551313,
4155.000,0.547605,
4154.000,0.543489,
4153.000,0.540069,
4152.000,0.538094,
4151.000,0.537342,
4150.000,0.536906,
4149.000,0.535949,
4148.000,0.534133,
4147.000,0.531512,
4146.000,0.5284,
4145.000,0.525417,
4144.000,0.523291,
4143.000,0.522301,
4142.000,0.521913,
4141.000,0.521198,
4140.000,0.519697,
4139.000,0.517864,
4138.000,0.516578,
4137.000,0.51625,
4136.000,0.516374,
4135.000,0.515996,
4134.000,0.51467,
4133.000,0.512925,
4132.000,0.51172,
4131.000,0.511491,
4130.000,0.511862,
4129.000,0.512163,
4128.000,0.512005,
4127.000,0.511289,
4126.000,0.510026,
4125.000,0.508399,
4124.000,0.506824,
4123.000,0.505663,
4122.000,0.504873,
4121.000,0.504181,
4120.000,0.50358,
4119.000,0.50343,
4118.000,0.503993,
4117.000,0.505052,
4116.000,0.506139,
4115.000,0.50695,
4114.000,0.507433,
4113.000,0.507562,
4112.000,0.507229,
4111.000,0.506432,
4110.000,0.505397,
4109.000,0.504444,
4108.000,0.503792,
4107.000,0.503559,
4106.000,0.503884,
4105.000,0.504832,
4104.000,0.506198,
4103.000,0.507576,
4102.000,0.508702,
4101.000,0.509679,
4100.000,0.510711,
4099.000,0.511757,
4098.000,0.512608,
4097.000,0.513222,
4096.000,0.513761,
4095.000,0.514289,
4094.000,0.514687,
4093.000,0.514977,
4092.000,0.515561,
4091.000,0.51692,
4090.000,0.519098,
4089.000,0.52164,
4088.000,0.524037,
4087.000,0.526151,
4086.000,0.528137,
4085.000,0.530042,
4084.000,0.531617,
4083.000,0.532565,
4082.000,0.532986,
4081.000,0.533484,
4080.000,0.534667,
4079.000,0.536601,
4078.000,0.538845,
4077.000,0.540946,
4076.000,0.54281,
4075.000,0.544602,
4074.000,0.546427,
4073.000,0.548256,
4072.000,0.550105,
4071.000,0.552149,
4070.000,0.554674,
4069.000,0.557883,
4068.000,0.561684,
4067.000,0.565615,
4066.000,0.569136,
4065.000,0.57213,
4064.000,0.575026,
4063.000,0.578336,
4062.000,0.582113,
4061.000,0.585982,
4060.000,0.589699,
4059.000,0.59345,
4058.000,0.597543,
4057.000,0.601911,
4056.000,0.606043,
4055.000,0.609493,
4054.000,0.612352,
4053.000,0.615231,
4052.000,0.618794,
4051.000,0.623237,
4050.000,0.628191,
4049.000,0.633066,
4048.000,0.63753,
4047.000,0.641745,
4046.000,0.646227,
4045.000,0.651425,
4044.000,0.657344,
4043.000,0.663514,
4042.000,0.669315,
4041.000,0.674399,
4040.000,0.678894,
4039.000,0.683344,
4038.000,0.688498,
4037.000,0.69495,
4036.000,0.70272,
4035.000,0.711101,
4034.000,0.719075,
4033.000,0.726039,
4032.000,0.732265,
4031.000,0.738647,
4030.000,0.74598,
4029.000,0.754375,
4028.000,0.763192,
4027.000,0.771579,
4026.000,0.779135,
4025.000,0.786164,
4024.000,0.793282,
4023.000,0.800845,
4022.000,0.808853,
4021.000,0.81731,
4020.000,0.826421,
4019.000,0.83632,
4018.000,0.846803,
4017.000,0.857529,
4016.000,0.868349,
4015.000,0.879232,
4014.000,0.889916,
4013.000,0.899972,
4012.000,0.909321,
4011.000,0.918517,
4010.000,0.928339,
4009.000,0.939141,
4008.000,0.950688,
4007.000,0.962579,
4006.000,0.974652,
4005.000,0.987031,
4004.000,0.999881,
4003.000,1.01318,
4002.000,1.02673,
4001.000,1.04031,
4000.000,1.05396,
3999.000,1.06791,
3998.000,1.0823,
3997.000,1.09694,
3996.000,1.11158,
3995.000,1.12628,
3994.000,1.14142,
3993.000,1.15727,
3992.000,1.17362,
3991.000,1.19005,
3990.000,1.20639,
3989.000,1.22291,
3988.000,1.24009,
3987.000,1.25805,
3986.000,1.27641,
3985.000,1.29449,
3984.000,1.31186,
3983.000,1.32871,
3982.000,1.34575,
3981.000,1.36364,
3980.000,1.38259,
3979.000,1.40234,
3978.000,1.4224,
3977.000,1.44226,
3976.000,1.46152,
3975.000,1.48001,
3974.000,1.49804,
3973.000,1.5163,
3972.000,1.53556,
3971.000,1.55615,
3970.000,1.57778,
3969.000,1.59979,
3968.000,1.62174,
3967.000,1.6437,
3966.000,1.66613,
3965.000,1.68928,
3964.000,1.71295,
3963.000,1.73666,
3962.000,1.75995,
3961.000,1.7826,
3960.000,1.80471,
3959.000,1.82672,
3958.000,1.84928,
3957.000,1.8728,
3956.000,1.8972,
3955.000,1.92195,
3954.000,1.9466,
3953.000,1.97101,
3952.000,1.99546,
3951.000,2.02045,
3950.000,2.04624,
3949.000,2.07268,
3948.000,2.09938,
3947.000,2.12621,
3946.000,2.1534,
3945.000,2.18134,
3944.000,2.21031,
3943.000,2.24028,
3942.000,2.27068,
3941.000,2.30062,
3940.000,2.32971,
3939.000,2.35862,
3938.000,2.38855,
3937.000,2.42022,
3936.000,2.45347,
3935.000,2.48775,
3934.000,2.52273,
3933.000,2.55807,
3932.000,2.59315,
3931.000,2.62742,
3930.000,2.66099,
3929.000,2.69465,
3928.000,2.72937,
3927.000,2.76572,
3926.000,2.80373,
3925.000,2.84305,
3924.000,2.88302,
3923.000,2.92297,
3922.000,2.96271,
3921.000,3.00283,
3920.000,3.04403,
3919.000,3.08629,
3918.000,3.12899,
3917.000,3.17157,
3916.000,3.21391,
3915.000,3.25625,
3914.000,3.29913,
3913.000,3.34328,
3912.000,3.38899,
3911.000,3.43565,
3910.000,3.48253,
3909.000,3.52974,
3908.000,3.57834,
3907.000,3.62931,
3906.000,3.68259,
3905.000,3.73699,
3904.000,3.79074,
3903.000,3.84243,
3902.000,3.89161,
3901.000,3.93894,
3900.000,3.98552,
3899.000,4.03203,
3898.000,4.07837,
3897.000,4.12459,
3896.000,4.1718,
3895.000,4.22129,
3894.000,4.27299,
3893.000,4.32513,
3892.000,4.37573,
3891.000,4.42385,
3890.000,4.46994,
3889.000,4.51495,
3888.000,4.56022,
3887.000,4.60762,
3886.000,4.65733,
3885.000,4.70627,
3884.000,4.7504,
3883.000,4.78871,
3882.000,4.82423,
3881.000,4.86034,
3880.000,4.89693,
3879.000,4.93191,
3878.000,4.96417,
3877.000,4.99424,
3876.000,5.0233,
3875.000,5.05158,
3874.000,5.07793,
3873.000,5.10081,
3872.000,5.11976,
3871.000,5.13644,
3870.000,5.15293,
3869.000,5.16851,
3868.000,5.17965,
3867.000,5.18422,
3866.000,5.18487,
3865.000,5.18527,
3864.000,5.18488,
3863.000,5.18035,
3862.000,5.17097,
3861.000,5.1593,
3860.000,5.14725,
3859.000,5.13411,
3858.000,5.11861,
3857.000,5.10031,
3856.000,5.07967,
3855.000,5.05764,
3854.000,5.03456,
3853.000,5.00914,
3852.000,4.97964,
3851.000,4.94678,
3850.000,4.91322,
3849.000,4.88079,
3848.000,4.8495,
3847.000,4.81823,
3846.000,4.78584,
3845.000,4.75153,
3844.000,4.71513,
3843.000,4.67735,
3842.000,4.63937,
3841.000,4.60105,
3840.000,4.56127,
3839.000,4.51941,
3838.000,4.47596,
3837.000,4.43204,
3836.000,4.38901,
3835.000,4.34715,
3834.000,4.30527,
3833.000,4.26226,
3832.000,4.21878,
3831.000,4.17672,
3830.000,4.13676,
3829.000,4.09744,
3828.000,4.0568,
3827.000,4.01434,
3826.000,3.97134,
3825.000,3.92906,
3824.000,3.88701,
3823.000,3.84376,
3822.000,3.79874,
3821.000,3.75275,
3820.000,3.70755,
3819.000,3.6641,
3818.000,3.62185,
3817.000,3.58055,
3816.000,3.54105,
3815.000,3.5041,
3814.000,3.46837,
3813.000,3.43169,
3812.000,3.39414,
3811.000,3.35693,
3810.000,3.31942,
3809.000,3.27983,
3808.000,3.23791,
3807.000,3.19582,
3806.000,3.15596,
3805.000,3.11798,
3804.000,3.07961,
3803.000,3.04006,
3802.000,3.00098,
3801.000,2.96435,
3800.000,2.93028,
3799.000,2.89669,
3798.000,2.86199,
3797.000,2.82655,
3796.000,2.79149,
3795.000,2.75744,
3794.000,2.72414,
3793.000,2.69119,
3792.000,2.65861,
3791.000,2.62613,
3790.000,2.59295,
3789.000,2.55872,
3788.000,2.52416,
3787.000,2.49048,
3786.000,2.45818,
3785.000,2.42702,
3784.000,2.39644,
3783.000,2.36578,
3782.000,2.33429,
3781.000,2.30183,
3780.000,2.26937,
3779.000,2.23818,
3778.000,2.20879,
3777.000,2.18075,
3776.000,2.15347,
3775.000,2.1266,
3774.000,2.09957,
3773.000,2.07143,
3772.000,2.04181,
3771.000,2.01188,
3770.000,1.98352,
3769.000,1.95738,
3768.000,1.93237,
3767.000,1.90713,
3766.000,1.88149,
3765.000,1.85599,
3764.000,1.83058,
3763.000,1.80418,
3762.000,1.77626,
3761.000,1.7482,
3760.000,1.72219,
3759.000,1.69891,
3758.000,1.67708,
3757.000,1.65531,
3756.000,1.633,
3755.000,1.60962,
3754.000,1.58466,
3753.000,1.55837,
3752.000,1.53212,
3751.000,1.50757,
3750.000,1.48565,
3749.000,1.46616,
3748.000,1.44746,
3747.000,1.42704,
3746.000,1.40416,
3745.000,1.3817,
3744.000,1.36365,
3743.000,1.34985,
3742.000,1.33519,
3741.000,1.31577,
3740.000,1.2926,
3739.000,1.26829,
3738.000,1.24446,
3737.000,1.22213,
3736.000,1.20242,
3735.000,1.18545,
3734.000,1.16926,
3733.000,1.15159,
3732.000,1.13246,
3731.000,1.11349,
3730.000,1.09526,
3729.000,1.07679,
3728.000,1.05741,
3727.000,1.03778,
3726.000,1.01902,
3725.000,1.0015,
3724.000,0.984766,
3723.000,0.968303,
3722.000,0.951667,
3721.000,0.93459,
3720.000,0.917339,
3719.000,0.900439,
3718.000,0.884017,
3717.000,0.867774,
3716.000,0.851473,
3715.000,0.835103,
3714.000,0.81889,
3713.000,0.803459,
3712.000,0.789772,
3711.000,0.778164,
3710.000,0.767446,
3709.000,0.755731,
3708.000,0.742305,
3707.000,0.728067,
3706.000,0.714211,
3705.000,0.701045,
3704.000,0.688266,
3703.000,0.675769,
3702.000,0.663769,
3701.000,0.65248,
3700.000,0.641901,
3699.000,0.631796,
3698.000,0.621737,
3697.000,0.611452,
3696.000,0.601042,
3695.000,0.590763,
3694.000,0.580752,
3693.000,0.571121,
3692.000,0.562086,
3691.000,0.553716,
3690.000,0.545705,
3689.000,0.537653,
3688.000,0.529635,
3687.000,0.52201,
3686.000,0.514739,
3685.000,0.507527,
3684.000,0.5005,
3683.000,0.494009,
3682.000,0.487904,
3681.000,0.481674,
3680.000,0.475235,
3679.000,0.469058,
3678.000,0.463323,
3677.000,0.457622,
3676.000,0.451698,
3675.000,0.446073,
3674.000,0.441463,
3673.000,0.437776,
3672.000,0.434262,
3671.000,0.430376,
3670.000,0.426165,
3669.000,0.422076,
3668.000,0.418434,
3667.000,0.415069,
3666.000,0.411456,
3665.000,0.40721,
3664.000,0.402509,
3663.000,0.39785,
3662.000,0.393478,
3661.000,0.389343,
3660.000,0.385535,
3659.000,0.382421,
3658.000,0.38023,
3657.000,0.378659,
3656.000,0.376952,
3655.000,0.374401,
3654.000,0.370813,
3653.000,0.36667,
3652.000,0.362898,
3651.000,0.36026,
3650.000,0.358678,
3649.000,0.357202,
3648.000,0.355004,
3647.000,0.352233,
3646.000,0.349478,
3645.000,0.346846,
3644.000,0.344036,
3643.000,0.340944,
3642.000,0.337901,
3641.000,0.335382,
3640.000,0.333493,
3639.000,0.331862,
3638.000,0.330137,
3637.000,0.328499,
3636.000,0.327514,
3635.000,0.32738,
3634.000,0.327503,
3633.000,0.327007,
3632.000,0.325602,
3631.000,0.323762,
3630.000,0.322032,
3629.000,0.320396,
3628.000,0.318521,
3627.000,0.316417,
3626.000,0.314459,
3625.000,0.312853,
3624.000,0.311448,
3623.000,0.310098,
3622.000,0.308977,
3621.000,0.308368,
3620.000,0.308154,
3619.000,0.307662,
3618.000,0.306264,
3617.000,0.304058,
3616.000,0.301752,
3615.000,0.300002,
3614.000,0.299044,
3613.000,0.298724,
3612.000,0.298589,
3611.000,0.298047,
3610.000,0.296728,
3609.000,0.294824,
3608.000,0.293033,
3607.000,0.29209,
3606.000,0.292299,
3605.000,0.293421,
3604.000,0.294777,
3603.000,0.295536,
3602.000,0.295237,
3601.000,0.294244,
3600.000,0.29347,
3599.000,0.29347,
3598.000,0.293888,
3597.000,0.293854,
3596.000,0.292818,
3595.000,0.291066,
3594.000,0.289571,
3593.000,0.289145,
3592.000,0.289634,
3591.000,0.290044,
3590.000,0.289626,
3589.000,0.288682,
3588.000,0.288049,
3587.000,0.287767,
3586.000,0.286887,
3585.000,0.284867,
3584.000,0.282523,
3583.000,0.281156,
3582.000,0.281177,
3581.000,0.281944,
3580.000,0.282596,
3579.000,0.282741,
3578.000,0.28246,
3577.000,0.282023,
3576.000,0.281659,
3575.000,0.281467,
3574.000,0.281475,
3573.000,0.281761,
3572.000,0.282419,
3571.000,0.283352,
3570.000,0.284274,
3569.000,0.284971,
3568.000,0.285434,
3567.000,0.285678,
3566.000,0.285677,
3565.000,0.28555,
3564.000,0.285535,
3563.000,0.285624,
3562.000,0.285545,
3561.000,0.285236,
3560.000,0.285051,
3559.000,0.285293,
3558.000,0.285807,
3557.000,0.286288,
3556.000,0.286702,
3555.000,0.287085,
3554.000,0.287208,
3553.000,0.286902,
3552.000,0.28658,
3551.000,0.286949,
3550.000,0.28816,
3549.000,0.289615,
3548.000,0.290642,
3547.000,0.291051,
3546.000,0.291015,
3545.000,0.290786,
3544.000,0.290714,
3543.000,0.29122,
3542.000,0.29245,
3541.000,0.294027,
3540.000,0.295363,
3539.000,0.296274,
3538.000,0.297185,
3537.000,0.298668,
3536.000,0.300783,
3535.000,0.302978,
3534.000,0.304693,
3533.000,0.305973,
3532.000,0.30731,
3531.000,0.30891,
3530.000,0.310342,
3529.000,0.311059,
3528.000,0.311113,
3527.000,0.311151,
3526.000,0.311757,
3525.000,0.312966,
3524.000,0.314413,
3523.000,0.315816,
3522.000,0.317244,
3521.000,0.318934,
3520.000,0.320905,
3519.000,0.322826,
3518.000,0.324362,
3517.000,0.325576,
3516.000,0.326843,
3515.000,0.328441,
3514.000,0.330426,
3513.000,0.332844,
3512.000,0.335724,
3511.000,0.338733,
3510.000,0.341189,
3509.000,0.342727,
3508.000,0.343754,
3507.000,0.344923,
3506.000,0.346342,
3505.000,0.347624,
3504.000,0.348633,
3503.000,0.349764,
3502.000,0.351373,
3501.000,0.353267,
3500.000,0.354995,
3499.000,0.356512,
3498.000,0.358341,
3497.000,0.361067,
3496.000,0.364722,
3495.000,0.368676,
3494.000,0.372133,
3493.000,0.374748,
3492.000,0.376778,
3491.000,0.37864,
3490.000,0.380453,
3489.000,0.382118,
3488.000,0.383765,
3487.000,0.385915,
3486.000,0.389088,
3485.000,0.39328,
3484.000,0.397902,
3483.000,0.402224,
3482.000,0.405867,
3481.000,0.408929,
3480.000,0.411781,
3479.000,0.414829,
3478.000,0.418378,
3477.000,0.422479,
3476.000,0.426817,
3475.000,0.430934,
3474.000,0.434775,
3473.000,0.438938,
3472.000,0.444126,
3471.000,0.450339,
3470.000,0.456744,
3469.000,0.46238,
3468.000,0.46686,
3467.000,0.470493,
3466.000,0.473992,
3465.000,0.478167,
3464.000,0.483582,
3463.000,0.490208,
3462.000,0.497436,
3461.000,0.50457,
3460.000,0.511329,
3459.000,0.51784,
3458.000,0.524266,
3457.000,0.530607,
3456.000,0.536856,
3455.000,0.543213,
3454.000,0.550076,
3453.000,0.557786,
3452.000,0.566308,
3451.000,0.575162,
3450.000,0.583743,
3449.000,0.591748,
3448.000,0.599309,
3447.000,0.606766,
3446.000,0.61446,
3445.000,0.622706,
3444.000,0.631758,
3443.000,0.64164,
3442.000,0.652052,
3441.000,0.662554,
3440.000,0.672867,
3439.000,0.682974,
3438.000,0.692993,
3437.000,0.702979,
3436.000,0.712884,
3435.000,0.722717,
3434.000,0.73272,
3433.000,0.743206,
3432.000,0.754117,
3431.000,0.764923,
3430.000,0.775206,
3429.000,0.785267,
3428.000,0.795826,
3427.000,0.807113,
3426.000,0.818597,
3425.000,0.829689,
3424.000,0.840386,
3423.000,0.851032,
3422.000,0.861732,
3421.000,0.872295,
3420.000,0.882571,
3419.000,0.892535,
3418.000,0.902065,
3417.000,0.910956,
3416.000,0.91918,
3415.000,0.926978,
3414.000,0.934672,
3413.000,0.94251,
3412.000,0.950702,
3411.000,0.959388,
3410.000,0.968467,
3409.000,0.977556,
3408.000,0.986269,
3407.000,0.994544,
3406.000,1.0027,
3405.000,1.01127,
3404.000,1.02082,
3403.000,1.03191,
3402.000,1.04496,
3401.000,1.05991,
3400.000,1.0761,
3399.000,1.09262,
3398.000,1.10904,
3397.000,1.12569,
3396.000,1.14332,
3395.000,1.16252,
3394.000,1.18344,
3393.000,1.20575,
3392.000,1.22879,
3391.000,1.25181,
3390.000,1.27449,
3389.000,1.29709,
3388.000,1.32024,
3387.000,1.34427,
3386.000,1.36886,
3385.000,1.39325,
3384.000,1.41695,
3383.000,1.44029,
3382.000,1.46436,
3381.000,1.49014,
3380.000,1.51763,
3379.000,1.54596,
3378.000,1.57431,
3377.000,1.60244,
3376.000,1.6303,
3375.000,1.65747,
3374.000,1.68353,
3373.000,1.70881,
3372.000,1.73447,
3371.000,1.76166,
3370.000,1.79071,
3369.000,1.82097,
3368.000,1.85118,
3367.000,1.88027,
3366.000,1.90808,
3365.000,1.93559,
3364.000,1.96404,
3363.000,1.99383,
3362.000,2.0245,
3361.000,2.05552,
3360.000,2.08678,
3359.000,2.11818,
3358.000,2.14934,
3357.000,2.18004,
3356.000,2.21062,
3355.000,2.24178,
3354.000,2.27387,
3353.000,2.30661,
3352.000,2.3394,
3351.000,2.3717,
3350.000,2.40341,
3349.000,2.4348,
3348.000,2.46623,
3347.000,2.49783,
3346.000,2.52946,
3345.000,2.56114,
3344.000,2.59312,
3343.000,2.62542,
3342.000,2.65746,
3341.000,2.68849,
3340.000,2.71832,
3339.000,2.74749,
3338.000,2.77667,
3337.000,2.80611,
3336.000,2.83549,
3335.000,2.8642,
3334.000,2.89159,
3333.000,2.91715,
3332.000,2.94081,
3331.000,2.96295,
3330.000,2.98411,
3329.000,3.00451,
3328.000,3.02389,
3327.000,3.04182,
3326.000,3.05796,
3325.000,3.07227,
3324.000,3.08483,
3323.000,3.09578,
3322.000,3.10524,
3321.000,3.11327,
3320.000,3.11981,
3319.000,3.12458,
3318.000,3.12729,
3317.000,3.1278,
3316.000,3.12621,
3315.000,3.12271,
3314.000,3.11754,
3313.000,3.11097,
3312.000,3.1032,
3311.000,3.09404,
3310.000,3.08306,
3309.000,3.07009,
3308.000,3.05558,
3307.000,3.04012,
3306.000,3.02368,
3305.000,3.00572,
3304.000,2.986,
3303.000,2.9651,
3302.000,2.94376,
3301.000,2.92222,
3300.000,2.90025,
3299.000,2.87769,
3298.000,2.85456,
3297.000,2.83085,
3296.000,2.80639,
3295.000,2.7811,
3294.000,2.75502,
3293.000,2.72824,
3292.000,2.70107,
3291.000,2.67407,
3290.000,2.64779,
3289.000,2.62207,
3288.000,2.59619,
3287.000,2.56955,
3286.000,2.54212,
3285.000,2.51416,
3284.000,2.48573,
3283.000,2.4568,
3282.000,2.42765,
3281.000,2.39887,
3280.000,2.37076,
3279.000,2.34326,
3278.000,2.3162,
3277.000,2.28961,
3276.000,2.26337,
3275.000,2.23694,
3274.000,2.20965,
3273.000,2.18132,
3272.000,2.15248,
3271.000,2.12397,
3270.000,2.09635,
3269.000,2.06973,
3268.000,2.04384,
3267.000,2.0183,
3266.000,1.9928,
3265.000,1.96717,
3264.000,1.94123,
3263.000,1.91492,
3262.000,1.88848,
3261.000,1.86245,
3260.000,1.83728,
3259.000,1.8129,
3258.000,1.78882,
3257.000,1.76461,
3256.000,1.7402,
3255.000,1.71569,
3254.000,1.69124,
3253.000,1.66699,
3252.000,1.64305,
3251.000,1.61931,
3250.000,1.59566,
3249.000,1.57223,
3248.000,1.54937,
3247.000,1.5272,
3246.000,1.50547,
3245.000,1.48402,
3244.000,1.46296,
3243.000,1.44236,
3242.000,1.42185,
3241.000,1.40095,
3240.000,1.37961,
3239.000,1.35836,
3238.000,1.33783,
3237.000,1.31828,
3236.000,1.29943,
3235.000,1.28069,
3234.000,1.26154,
3233.000,1.24197,
3232.000,1.22243,
3231.000,1.20327,
3230.000,1.18445,
3229.000,1.1659,
3228.000,1.14784,
3227.000,1.13041,
3226.000,1.1132,
3225.000,1.09558,
3224.000,1.07756,
3223.000,1.05979,
3222.000,1.04279,
3221.000,1.02633,
3220.000,1.00988,
3219.000,0.993329,
3218.000,0.977033,
3217.000,0.961363,
3216.000,0.946364,
3215.000,0.93169,
3214.000,0.916715,
3213.000,0.900945,
3212.000,0.884521,
3211.000,0.868203,
3210.000,0.852631,
3209.000,0.837669,
3208.000,0.822678,
3207.000,0.807347,
3206.000,0.791994,
3205.000,0.777074,
3204.000,0.762633,
3203.000,0.748425,
3202.000,0.734373,
3201.000,0.720725,
3200.000,0.707757,
3199.000,0.695434,
3198.000,0.683418,
3197.000,0.671355,
3196.000,0.659145,
3195.000,0.64697,
3194.000,0.635044,
3193.000,0.623368,
3192.000,0.611735,
3191.000,0.599988,
3190.000,0.588218,
3189.000,0.576612,
3188.000,0.565185,
3187.000,0.553807,
3186.000,0.542595,
3185.000,0.532116,
3184.000,0.522955,
3183.000,0.515031,
3182.000,0.507467,
3181.000,0.499224,
3180.000,0.489884,
3179.000,0.479798,
3178.000,0.469698,
3177.000,0.460235,
3176.000,0.451733,
3175.000,0.444121,
3174.000,0.436995,
3173.000,0.4299,
3172.000,0.422706,
3171.000,0.415687,
3170.000,0.409194,
3169.000,0.403224,
3168.000,0.397409,
3167.000,0.391451,
3166.000,0.385456,
3165.000,0.379778,
3164.000,0.374535,
3163.000,0.369421,
3162.000,0.364,
3161.000,0.358111,
3160.000,0.351993,
3159.000,0.346132,
3158.000,0.341007,
3157.000,0.336788,
3156.000,0.333105,
3155.000,0.329215,
3154.000,0.324609,
3153.000,0.319468,
3152.000,0.314436,
3151.000,0.309978,
3150.000,0.306106,
3149.000,0.302632,
3148.000,0.299425,
3147.000,0.296411,
3146.000,0.293514,
3145.000,0.290705,
3144.000,0.287935,
3143.000,0.284973,
3142.000,0.281509,
3141.000,0.27755,
3140.000,0.27359,
3139.000,0.27022,
3138.000,0.267621,
3137.000,0.265488,
3136.000,0.263344,
3135.000,0.260833,
3134.000,0.257873,
3133.000,0.254693,
3132.000,0.25169,
3131.000,0.249045,
3130.000,0.246515,
3129.000,0.243752,
3128.000,0.240791,
3127.000,0.23806,
3126.000,0.235883,
3125.000,0.234165,
3124.000,0.232615,
3123.000,0.231096,
3122.000,0.229678,
3121.000,0.228477,
3120.000,0.227551,
3119.000,0.226763,
3118.000,0.225605,
3117.000,0.223369,
3116.000,0.219872,
3115.000,0.216013,
3114.000,0.213238,
3113.000,0.212208,
3112.000,0.212163,
3111.000,0.211764,
3110.000,0.21041,
3109.000,0.208522,
3108.000,0.206689,
3107.000,0.204965,
3106.000,0.2031,
3105.000,0.201143,
3104.000,0.19954,
3103.000,0.198656,
3102.000,0.198331,
3101.000,0.197926,
3100.000,0.196816,
3099.000,0.19492,
3098.000,0.192809,
3097.000,0.191211,
3096.000,0.19037,
3095.000,0.189923,
3094.000,0.189413,
3093.000,0.188796,
3092.000,0.188408,
3091.000,0.188517,
3090.000,0.188941,
3089.000,0.189033,
3088.000,0.188087,
3087.000,0.185938,
3086.000,0.183262,
3085.000,0.181118,
3084.000,0.180054,
3083.000,0.179738,
3082.000,0.179514,
3081.000,0.179139,
3080.000,0.178867,
3079.000,0.178959,
3078.000,0.179362,
3077.000,0.179762,
3076.000,0.179782,
3075.000,0.179133,
3074.000,0.177764,
3073.000,0.175892,
3072.000,0.173852,
3071.000,0.171944,
3070.000,0.170428,
3069.000,0.169514,
3068.000,0.169183,
3067.000,0.169165,
3066.000,0.169247,
3065.000,0.169498,
3064.000,0.170031,
3063.000,0.170647,
3062.000,0.170966,
3061.000,0.170838,
3060.000,0.170414,
3059.000,0.169872,
3058.000,0.169309,
3057.000,0.168858,
3056.000,0.168664,
3055.000,0.16869,
3054.000,0.168759,
3053.000,0.168816,
3052.000,0.168959,
3051.000,0.169213,
3050.000,0.169435,
3049.000,0.169483,
3048.000,0.169313,
3047.000,0.168927,
3046.000,0.168423,
3045.000,0.168067,
3044.000,0.16809,
3043.000,0.168348,
3042.000,0.168424,
3041.000,0.168138,
3040.000,0.167773,
3039.000,0.167735,
3038.000,0.168153,
3037.000,0.168859,
3036.000,0.169557,
3035.000,0.169913,
3034.000,0.169735,
3033.000,0.169241,
3032.000,0.168984,
3031.000,0.169349,
3030.000,0.170273,
3029.000,0.17148,
3028.000,0.17274,
3027.000,0.173699,
3026.000,0.173811,
3025.000,0.172843,
3024.000,0.171364,
3023.000,0.170411,
3022.000,0.170592,
3021.000,0.171711,
3020.000,0.173251,
3019.000,0.17492,
3018.000,0.176661,
3017.000,0.178351,
3016.000,0.179834,
3015.000,0.181167,
3014.000,0.182574,
3013.000,0.18407,
3012.000,0.185332,
3011.000,0.186094,
3010.000,0.186561,
3009.000,0.187256,
3008.000,0.188508,
3007.000,0.190223,
3006.000,0.192167,
3005.000,0.194274,
3004.000,0.196573,
3003.000,0.198986,
3002.000,0.20131,
3001.000,0.203362,
3000.000,0.205052,
2999.000,0.206437,
2998.000,0.207836,
2997.000,0.209744,
2996.000,0.212435,
2995.000,0.21568,
2994.000,0.219063,
2993.000,0.222556,
2992.000,0.226589,
2991.000,0.231501,
2990.000,0.237088,
2989.000,0.242789,
2988.000,0.248177,
2987.000,0.253163,
2986.000,0.257855,
2985.000,0.262392,
2984.000,0.266911,
2983.000,0.271579,
2982.000,0.27661,
2981.000,0.282193,
2980.000,0.288251,
2979.000,0.294237,
2978.000,0.299331,
2977.000,0.302967,
2976.000,0.30516,
2975.000,0.306212,
2974.000,0.306127,
2973.000,0.304424,
2972.000,0.300513,
2971.000,0.294214,
2970.000,0.285851,
2969.000,0.275886,
2968.000,0.264512,
2967.000,0.251645,
2966.000,0.237366,
2965.000,0.222227,
2964.000,0.207129,
2963.000,0.192884,
2962.000,0.179931,
2961.000,0.16836,
2960.000,0.158,
2959.000,0.148544,
2958.000,0.139747,
2957.000,0.131651,
2956.000,0.124515,
2955.000,0.118436,
2954.000,0.113093,
2953.000,0.10799,
2952.000,0.102924,
2951.000,0.0981011,
2950.000,0.0937617,
2949.000,0.0897645,
2948.000,0.0856347,
2947.000,0.0810646,
2946.000,0.0763049,
2945.000,0.0720084,
2944.000,0.0686651,
2943.000,0.0661806,
2942.000,0.0640109,
2941.000,0.0616429,
2940.000,0.0589395,
2939.000,0.0562193,
2938.000,0.0540383,
2937.000,0.05278,
2936.000,0.0523706,
2935.000,0.0524364,
2934.000,0.0527443,
2933.000,0.0533608,
2932.000,0.054439,
2931.000,0.0560538,
2930.000,0.0582524,
2929.000,0.0610544,
2928.000,0.0642667,
2927.000,0.067439,
2926.000,0.0702209,
2925.000,0.0727066,
2924.000,0.0752657,
2923.000,0.0781305,
2922.000,0.0813228,
2921.000,0.0848859,
2920.000,0.0888891,
2919.000,0.0932011,
2918.000,0.0975327,
2917.000,0.101749,
2916.000,0.105924,
2915.000,0.110032,
2914.000,0.113743,
2913.000,0.116649,
2912.000,0.118642,
2911.000,0.120089,
2910.000,0.121637,
2909.000,0.123751,
2908.000,0.126374,
2907.000,0.129075,
2906.000,0.131592,
2905.000,0.134103,
2904.000,0.136895,
2903.000,0.139891,
2902.000,0.142685,
2901.000,0.144964,
2900.000,0.146776,
2899.000,0.148398,
2898.000,0.150086,
2897.000,0.151936,
2896.000,0.15389,
2895.000,0.15594,
2894.000,0.158321,
2893.000,0.161364,
2892.000,0.165058,
2891.000,0.168927,
2890.000,0.172548,
2889.000,0.175986,
2888.000,0.179511,
2887.000,0.18299,
2886.000,0.185895,
2885.000,0.187929,
2884.000,0.189423,
2883.000,0.191088,
2882.000,0.193522,
2881.000,0.19685,
2880.000,0.200489,
2879.000,0.203323,
2878.000,0.204491,
2877.000,0.20412,
2876.000,0.203012,
2875.000,0.201553,
2874.000,0.199251,
2873.000,0.195452,
2872.000,0.190117,
2871.000,0.183645,
2870.000,0.176252,
2869.000,0.167941,
2868.000,0.159011,
2867.000,0.150207,
2866.000,0.142234,
2865.000,0.13524,
2864.000,0.128885,
2863.000,0.122938,
2862.000,0.117805,
2861.000,0.114361,
2860.000,0.113142,
2859.000,0.113725,
2858.000,0.115161,
2857.000,0.117002,
2856.000,0.119634,
2855.000,0.12355,
2854.000,0.128608,
2853.000,0.134168,
2852.000,0.139697,
2851.000,0.145006,
2850.000,0.150128,
2849.000,0.155284,
2848.000,0.160885,
2847.000,0.16724,
2846.000,0.174237,
2845.000,0.181497,
2844.000,0.188849,
2843.000,0.196423,
2842.000,0.204258,
2841.000,0.212081,
2840.000,0.219636,
2839.000,0.227063,
2838.000,0.234769,
2837.000,0.242938,
2836.000,0.251322,
2835.000,0.259538,
2834.000,0.267499,
2833.000,0.275427,
2832.000,0.283465,
2831.000,0.291353,
2830.000,0.298566,
2829.000,0.30481,
2828.000,0.310396,
2827.000,0.31614,
2826.000,0.322861,
2825.000,0.330822,
2824.000,0.339541,
2823.000,0.348209,
2822.000,0.356477,
2821.000,0.364879,
2820.000,0.374378,
2819.000,0.385456,
2818.000,0.397704,
2817.000,0.410377,
2816.000,0.423191,
2815.000,0.436456,
2814.000,0.450576,
2813.000,0.465587,
2812.000,0.481214,
2811.000,0.497159,
2810.000,0.513273,
2809.000,0.529628,
2808.000,0.546486,
2807.000,0.564053,
2806.000,0.582101,
2805.000,0.599978,
2804.000,0.617179,
2803.000,0.633905,
2802.000,0.650825,
2801.000,0.668255,
2800.000,0.685793,
2799.000,0.702875,
2798.000,0.719487,
2797.000,0.736171,
2796.000,0.753491,
2795.000,0.771765,
2794.000,0.79118,
2793.000,0.811789,
2792.000,0.833374,
2791.000,0.855645,
2790.000,0.878757,
2789.000,0.903334,
2788.000,0.929675,
2787.000,0.957079,
2786.000,0.984323,
2785.000,1.01079,
2784.000,1.03689,
2783.000,1.06338,
2782.000,1.09051,
2781.000,1.11803,
2780.000,1.14558,
2779.000,1.17299,
2778.000,1.20028,
2777.000,1.2277,
2776.000,1.25568,
2775.000,1.28464,
2774.000,1.31464,
2773.000,1.34532,
2772.000,1.37613,
2771.000,1.40669,
2770.000,1.43699,
2769.000,1.46736,
2768.000,1.49814,
2767.000,1.52929,
2766.000,1.56037,
2765.000,1.59096,
2764.000,1.62108,
2763.000,1.65123,
2762.000,1.68194,
2761.000,1.71363,
2760.000,1.74658,
2759.000,1.78077,
2758.000,1.81583,
2757.000,1.85128,
2756.000,1.88695,
2755.000,1.92281,
2754.000,1.95851,
2753.000,1.99341,
2752.000,2.02714,
2751.000,2.05971,
2750.000,2.09113,
2749.000,2.1209,
2748.000,2.14834,
2747.000,2.17318,
2746.000,2.19549,
2745.000,2.21535,
2744.000,2.2328,
2743.000,2.24781,
2742.000,2.26033,
2741.000,2.27028,
2740.000,2.27761,
2739.000,2.28244,
2738.000,2.28471,
2737.000,2.28425,
2736.000,2.28103,
2735.000,2.27535,
2734.000,2.26756,
2733.000,2.25773,
2732.000,2.24587,
2731.000,2.23241,
2730.000,2.21805,
2729.000,2.20322,
2728.000,2.18779,
2727.000,2.17132,
2726.000,2.15357,
2725.000,2.13458,
2724.000,2.11454,
2723.000,2.09336,
2722.000,2.07073,
2721.000,2.04645,
2720.000,2.0208,
2719.000,1.99435,
2718.000,1.96752,
2717.000,1.94039,
2716.000,1.9131,
2715.000,1.88605,
2714.000,1.85962,
2713.000,1.83376,
2712.000,1.80797,
2711.000,1.7818,
2710.000,1.75499,
2709.000,1.7275,
2708.000,1.69946,
2707.000,1.67129,
2706.000,1.64356,
2705.000,1.61651,
2704.000,1.58987,
2703.000,1.56327,
2702.000,1.53662,
2701.000,1.51002,
2700.000,1.48344,
2699.000,1.45673,
2698.000,1.43005,
2697.000,1.4038,
2696.000,1.37809,
2695.000,1.35253,
2694.000,1.32662,
2693.000,1.30034,
2692.000,1.27402,
2691.000,1.24789,
2690.000,1.22199,
2689.000,1.19628,
2688.000,1.17059,
2687.000,1.14462,
2686.000,1.1182,
2685.000,1.09144,
2684.000,1.06454,
2683.000,1.03755,
2682.000,1.01075,
2681.000,0.984902,
2680.000,0.96076,
2679.000,0.938268,
2678.000,0.916745,
2677.000,0.895964,
2676.000,0.876513,
2675.000,0.859023,
2674.000,0.843461,
2673.000,0.829403,
2672.000,0.816601,
2671.000,0.804851,
2670.000,0.793764,
2669.000,0.783037,
2668.000,0.772868,
2667.000,0.763805,
2666.000,0.756117,
2665.000,0.749452,
2664.000,0.742959,
2663.000,0.735606,
2662.000,0.726613,
2661.000,0.71586,
2660.000,0.703851,
2659.000,0.691177,
2658.000,0.678071,
2657.000,0.664496,
2656.000,0.65049,
2655.000,0.636269,
2654.000,0.622149,
2653.000,0.608548,
2652.000,0.595871,
2651.000,0.584184,
2650.000,0.573079,
2649.000,0.562,
2648.000,0.550671,
2647.000,0.539217,
2646.000,0.528005,
2645.000,0.517417,
2644.000,0.507568,
2643.000,0.498113,
2642.000,0.48851,
2641.000,0.478555,
2640.000,0.468473,
2639.000,0.458452,
2638.000,0.448352,
2637.000,0.438062,
2636.000,0.427877,
2635.000,0.418249,
2634.000,0.40929,
2633.000,0.400689,
2632.000,0.392034,
2631.000,0.383098,
2630.000,0.373951,
2629.000,0.364978,
2628.000,0.356581,
2627.000,0.348726,
2626.000,0.340942,
2625.000,0.332933,
2624.000,0.32499,
2623.000,0.317533,
2622.000,0.310475,
2621.000,0.303404,
2620.000,0.296286,
2619.000,0.289614,
2618.000,0.283775,
2617.000,0.278598,
2616.000,0.273645,
2615.000,0.268714,
2614.000,0.263906,
2613.000,0.259335,
2612.000,0.254953,
2611.000,0.250612,
2610.000,0.246194,
2609.000,0.2417,
2608.000,0.23727,
2607.000,0.233121,
2606.000,0.229363,
2605.000,0.22583,
2604.000,0.222163,
2603.000,0.218178,
2602.000,0.214209,
2601.000,0.210926,
2600.000,0.20863,
2599.000,0.206803,
2598.000,0.204493,
2597.000,0.201204,
2596.000,0.197283,
2595.000,0.193485,
2594.000,0.190371,
2593.000,0.188077,
2592.000,0.186355,
2591.000,0.184684,
2590.000,0.182562,
2589.000,0.179894,
2588.000,0.177009,
2587.000,0.174211,
2586.000,0.171514,
2585.000,0.168896,
2584.000,0.166534,
2583.000,0.164553,
2582.000,0.162716,
2581.000,0.160657,
2580.000,0.15834,
2579.000,0.15604,
2578.000,0.153906,
2577.000,0.151847,
2576.000,0.149851,
2575.000,0.148145,
2574.000,0.1469,
2573.000,0.145975,
2572.000,0.145093,
2571.000,0.144139,
2570.000,0.143129,
2569.000,0.141952,
2568.000,0.140336,
2567.000,0.138178,
2566.000,0.135784,
2565.000,0.133663,
2564.000,0.132041,
2563.000,0.130673,
2562.000,0.129229,
2561.000,0.127773,
2560.000,0.126688,
2559.000,0.126123,
2558.000,0.12571,
2557.000,0.124943,
2556.000,0.123733,
2555.000,0.122432,
2554.000,0.12139,
2553.000,0.120647,
2552.000,0.120034,
2551.000,0.119392,
2550.000,0.118624,
2549.000,0.117637,
2548.000,0.116393,
2547.000,0.11499,
2546.000,0.11363,
2545.000,0.112452,
2544.000,0.111436,
2543.000,0.110524,
2542.000,0.109791,
2541.000,0.109394,
2540.000,0.109295,
2539.000,0.109162,
2538.000,0.108671,
2537.000,0.107821,
2536.000,0.106823,
2535.000,0.105786,
2534.000,0.10469,
2533.000,0.103646,
2532.000,0.102911,
2531.000,0.102578,
2530.000,0.102412,
2529.000,0.102113,
2528.000,0.101624,
2527.000,0.101117,
2526.000,0.100728,
2525.000,0.100405,
2524.000,0.0999506,
2523.000,0.0991962,
2522.000,0.0981614,
2521.000,0.097113,
2520.000,0.0963691,
2519.000,0.0959851,
2518.000,0.0957115,
2517.000,0.0953161,
2516.000,0.0948489,
2515.000,0.0945326,
2514.000,0.0944664,
2513.000,0.0945077,
2512.000,0.0943751,
2511.000,0.0938204,
2510.000,0.092792,
2509.000,0.0915127,
2508.000,0.0903766,
2507.000,0.0897099,
2506.000,0.0896096,
2505.000,0.0899397,
2504.000,0.0903964,
2503.000,0.0906223,
2502.000,0.0904236,
2501.000,0.0899221,
2500.000,0.0894007,
2499.000,0.0889812,
2498.000,0.0885587,
2497.000,0.0880363,
2496.000,0.0874518,
2495.000,0.0868411,
2494.000,0.0861826,
2493.000,0.085553,
2492.000,0.0851782,
2491.000,0.0852165,
2490.000,0.0856051,
2489.000,0.0861777,
2488.000,0.0868035,
2487.000,0.0873298,
2486.000,0.0875335,
2485.000,0.0872662,
2484.000,0.0865871,
2483.000,0.0856662,
2482.000,0.0846384,
2481.000,0.0836759,
2480.000,0.0830849,
2479.000,0.0830958,
2478.000,0.0835508,
2477.000,0.0839661,
2476.000,0.0839795,
2475.000,0.0836914,
2474.000,0.0835282,
2473.000,0.0837815,
2472.000,0.0842898,
2471.000,0.0845699,
2470.000,0.0842523,
2469.000,0.0833994,
2468.000,0.0824262,
2467.000,0.0817636,
2466.000,0.0816224,
2465.000,0.0819663,
2464.000,0.0825236,
2463.000,0.0828553,
2462.000,0.0826533,
2461.000,0.0820886,
2460.000,0.0817258,
2459.000,0.0819526,
2458.000,0.0825869,
2457.000,0.0831331,
2456.000,0.0832873,
2455.000,0.0830839,
2454.000,0.0827192,
2453.000,0.0824232,
2452.000,0.0824173,
2451.000,0.0827512,
2450.000,0.0831572,
2449.000,0.0832504,
2448.000,0.0829633,
2447.000,0.0826679,
2446.000,0.0827728,
2445.000,0.0832618,
2444.000,0.0837204,
2443.000,0.0837975,
2442.000,0.0835653,
2441.000,0.0834213,
2440.000,0.0836822,
2439.000,0.0843192,
2438.000,0.0850779,
2437.000,0.0857224,
2436.000,0.0860654,
2435.000,0.0858912,
2434.000,0.0850945,
2433.000,0.0839305,
2432.000,0.0829048,
2431.000,0.0823033,
2430.000,0.0819819,
2429.000,0.0817356,
2428.000,0.0816933,
2427.000,0.08215,
2426.000,0.0831051,
2425.000,0.0841777,
2424.000,0.0849809,
2423.000,0.08541,
2422.000,0.0855745,
2421.000,0.0856059,
2420.000,0.0855977,
2419.000,0.0856405,
2418.000,0.0858159,
2417.000,0.0861802,
2416.000,0.0867766,
2415.000,0.087614,
2414.000,0.0886081,
2413.000,0.0895657,
2412.000,0.0902459,
2411.000,0.0904807,
2410.000,0.0903243,
2409.000,0.0901275,
2408.000,0.0903785,
2407.000,0.0913349,
2406.000,0.0927459,
2405.000,0.0939665,
2404.000,0.0943828,
2403.000,0.0938421,
2402.000,0.092793,
2401.000,0.0920191,
2400.000,0.0920807,
2399.000,0.0928835,
2398.000,0.0938131,
2397.000,0.0943676,
2396.000,0.094606,
2395.000,0.0949195,
2394.000,0.0954898,
2393.000,0.0961411,
2392.000,0.0966824,
2391.000,0.0971967,
2390.000,0.0979131,
2389.000,0.0989189,
2388.000,0.100076,
2387.000,0.101139,
2386.000,0.101894,
2385.000,0.102265,
2384.000,0.102398,
2383.000,0.102628,
2382.000,0.103234,
2381.000,0.104222,
2380.000,0.105372,
2379.000,0.106505,
2378.000,0.10764,
2377.000,0.108898,
2376.000,0.110326,
2375.000,0.111812,
2374.000,0.113106,
2373.000,0.113943,
2372.000,0.114287,
2371.000,0.114541,
2370.000,0.11537,
2369.000,0.117077,
2368.000,0.119143,
2367.000,0.120652,
2366.000,0.121297,
2365.000,0.121787,
2364.000,0.123029,
2363.000,0.124996,
2362.000,0.126713,
2361.000,0.127445,
2360.000,0.127422,
2359.000,0.127409,
2358.000,0.127946,
2357.000,0.129013,
2356.000,0.130463,
2355.000,0.132215,
2354.000,0.134064,
2353.000,0.13577,
2352.000,0.137169,
2351.000,0.13839,
2350.000,0.139619,
2349.000,0.141036,
2348.000,0.142805,
2347.000,0.144815,
2346.000,0.146901,
2345.000,0.148843,
2344.000,0.150487,
2343.000,0.151811,
2342.000,0.153034,
2341.000,0.154757,
2340.000,0.1571,
2339.000,0.159646,
2338.000,0.161745,
2337.000,0.163233,
2336.000,0.164603,
2335.000,0.166408,
2334.000,0.168749,
2333.000,0.171303,
2332.000,0.173811,
2331.000,0.176193,
2330.000,0.178488,
2329.000,0.180669,
2328.000,0.182908,
2327.000,0.185121,
2326.000,0.187441,
2325.000,0.189905,
2324.000,0.19273,
2323.000,0.195872,
2322.000,0.199087,
2321.000,0.202339,
2320.000,0.205731,
2319.000,0.209375,
2318.000,0.213012,
2317.000,0.216406,
2316.000,0.219681,
2315.000,0.223179,
2314.000,0.227196,
2313.000,0.231638,
2312.000,0.236401,
2311.000,0.241266,
2310.000,0.246253,
2309.000,0.251358,
2308.000,0.256785,
2307.000,0.262449,
2306.000,0.268126,
2305.000,0.273479,
2304.000,0.278565,
2303.000,0.283599,
2302.000,0.288819,
2301.000,0.294285,
2300.000,0.300147,
2299.000,0.306478,
2298.000,0.313174,
2297.000,0.319795,
2296.000,0.326087,
2295.000,0.332168,
2294.000,0.338613,
2293.000,0.345907,
2292.000,0.354214,
2291.000,0.363141,
2290.000,0.372066,
2289.000,0.380595,
2288.000,0.38891,
2287.000,0.397484,
2286.000,0.406505,
2285.000,0.415734,
2284.000,0.424909,
2283.000,0.434183,
2282.000,0.443972,
2281.000,0.45454,
2280.000,0.465737,
2279.000,0.477192,
2278.000,0.488574,
2277.000,0.499823,
2276.000,0.511095,
2275.000,0.522585,
2274.000,0.534373,
2273.000,0.546469,
2272.000,0.558988,
2271.000,0.572054,
2270.000,0.585619,
2269.000,0.599444,
2268.000,0.613366,
2267.000,0.627405,
2266.000,0.641609,
2265.000,0.65596,
2264.000,0.670512,
2263.000,0.685403,
2262.000,0.700675,
2261.000,0.716163,
2260.000,0.731745,
2259.000,0.74751,
2258.000,0.763558,
2257.000,0.779855,
2256.000,0.796337,
2255.000,0.813111,
2254.000,0.830305,
2253.000,0.847898,
2252.000,0.8658,
2251.000,0.883979,
2250.000,0.902374,
2249.000,0.920766,
2248.000,0.939014,
2247.000,0.957207,
2246.000,0.975574,
2245.000,0.994132,
2244.000,1.01273,
2243.000,1.03138,
2242.000,1.0503,
2241.000,1.06976,
2240.000,1.08974,
2239.000,1.10994,
2238.000,1.12999,
2237.000,1.14985,
2236.000,1.16998,
2235.000,1.19092,
2234.000,1.21261,
2233.000,1.23426,
2232.000,1.25518,
2231.000,1.27536,
2230.000,1.2952,
2229.000,1.31487,
2228.000,1.3341,
2227.000,1.35257,
2226.000,1.37021,
2225.000,1.38727,
2224.000,1.40403,
2223.000,1.42049,
2222.000,1.43611,
2221.000,1.45028,
2220.000,1.46293,
2219.000,1.47452,
2218.000,1.48527,
2217.000,1.49477,
2216.000,1.50239,
2215.000,1.50789,
2214.000,1.51152,
2213.000,1.51359,
2212.000,1.51435,
2211.000,1.51393,
2210.000,1.51227,
2209.000,1.50926,
2208.000,1.50485,
2207.000,1.49913,
2206.000,1.49206,
2205.000,1.4835,
2204.000,1.47361,
2203.000,1.4627,
2202.000,1.45089,
2201.000,1.43801,
2200.000,1.42404,
2199.000,1.40945,
2198.000,1.39487,
2197.000,1.38049,
2196.000,1.36596,
2195.000,1.35057,
2194.000,1.33371,
2193.000,1.31531,
2192.000,1.29604,
2191.000,1.2766,
2190.000,1.25704,
2189.000,1.23689,
2188.000,1.21595,
2187.000,1.19458,
2186.000,1.17318,
2185.000,1.15183,
2184.000,1.13056,
2183.000,1.10953,
2182.000,1.08879,
2181.000,1.06811,
2180.000,1.04744,
2179.000,1.02708,
2178.000,1.0074,
2177.000,0.988393,
2176.000,0.970046,
2175.000,0.95269,
2174.000,0.936826,
2173.000,0.922547,
2172.000,0.909344,
2171.000,0.89648,
2170.000,0.883467,
2169.000,0.870228,
2168.000,0.856894,
2167.000,0.843418,
2166.000,0.829454,
2165.000,0.814734,
2164.000,0.799536,
2163.000,0.784501,
2162.000,0.769914,
2161.000,0.755392,
2160.000,0.740431,
2159.000,0.725012,
2158.000,0.709496,
2157.000,0.694116,
2156.000,0.678872,
2155.000,0.663815,
2154.000,0.649149,
2153.000,0.635028,
2152.000,0.621406,
2151.000,0.608077,
2150.000,0.594746,
2149.000,0.581097,
2148.000,0.567014,
2147.000,0.55277,
2146.000,0.538824,
2145.000,0.525385,
2144.000,0.512327,
2143.000,0.499536,
2142.000,0.487124,
2141.000,0.475172,
2140.000,0.463495,
2139.000,0.451871,
2138.000,0.440362,
2137.000,0.429172,
2136.000,0.418234,
2135.000,0.407225,
2134.000,0.395997,
2133.000,0.384781,
2132.000,0.373941,
2131.000,0.36374,
2130.000,0.35439,
2129.000,0.346004,
2128.000,0.33831,
2127.000,0.330626,
2126.000,0.322391,
2125.000,0.313665,
2124.000,0.304972,
2123.000,0.296719,
2122.000,0.288921,
2121.000,0.281416,
2120.000,0.27412,
2119.000,0.267072,
2118.000,0.260352,
2117.000,0.253963,
2116.000,0.247715,
2115.000,0.241264,
2114.000,0.234424,
2113.000,0.227426,
2112.000,0.220825,
2111.000,0.215102,
2110.000,0.210373,
2109.000,0.206361,
2108.000,0.202588,
2107.000,0.19861,
2106.000,0.194201,
2105.000,0.189305,
2104.000,0.183941,
2103.000,0.178336,
2102.000,0.1731,
2101.000,0.168943,
2100.000,0.166054,
2099.000,0.163879,
2098.000,0.161643,
2097.000,0.158946,
2096.000,0.155806,
2095.000,0.152397,
2094.000,0.14901,
2093.000,0.146031,
2092.000,0.143565,
2091.000,0.141212,
2090.000,0.138534,
2089.000,0.135687,
2088.000,0.133232,
2087.000,0.131353,
2086.000,0.129638,
2085.000,0.12769,
2084.000,0.125562,
2083.000,0.123472,
2082.000,0.12142,
2081.000,0.119289,
2080.000,0.117107,
2079.000,0.115026,
2078.000,0.113105,
2077.000,0.111316,
2076.000,0.10969,
2075.000,0.108281,
2074.000,0.106968,
2073.000,0.105449,
2072.000,0.103558,
2071.000,0.101537,
2070.000,0.099855,
2069.000,0.0987454,
2068.000,0.0979989,
2067.000,0.0971957,
2066.000,0.0960941,
2065.000,0.0947413,
2064.000,0.0933025,
2063.000,0.0919233,
2062.000,0.0907295,
2061.000,0.0897792,
2060.000,0.0889547,
2059.000,0.0880306,
2058.000,0.0869257,
2057.000,0.0857951,
2056.000,0.0848281,
2055.000,0.0840794,
2054.000,0.0835175,
2053.000,0.0830262,
2052.000,0.0822694,
2051.000,0.0808038,
2050.000,0.0785548,
2049.000,0.0760803,
2048.000,0.0741605,
2047.000,0.0731362,
2046.000,0.0727641,
2045.000,0.0726023,
2044.000,0.0723608,
2043.000,0.0719781,
2042.000,0.0715718,
2041.000,0.0713182,
2040.000,0.0712115,
2039.000,0.0709561,
2038.000,0.0702844,
2037.000,0.0693543,
2036.000,0.0686573,
2035.000,0.0685216,
2034.000,0.0687772,
2033.000,0.0688865,
2032.000,0.0683805,
2031.000,0.0672316,
2030.000,0.0658622,
2029.000,0.0647753,
2028.000,0.0641205,
2027.000,0.0636408,
2026.000,0.0630337,
2025.000,0.0622417,
2024.000,0.0613718,
2023.000,0.0605099,
2022.000,0.0597427,
2021.000,0.059209,
2020.000,0.0589499,
2019.000,0.0587537,
2018.000,0.0583153,
2017.000,0.0575513,
2016.000,0.0566942,
2015.000,0.0561191,
2014.000,0.0560936,
2013.000,0.0565764,
2012.000,0.0571556,
2011.000,0.0572794,
2010.000,0.0567106,
2009.000,0.0557315,
2008.000,0.0548238,
2007.000,0.054249,
2006.000,0.0539879,
2005.000,0.0538773,
2004.000,0.053685,
2003.000,0.0532252,
2002.000,0.0525628,
2001.000,0.0520199,
2000.000,0.0518362,
1999.000,0.0518837,
1998.000,0.0518294,
1997.000,0.0515005,
1996.000,0.0509548,
1995.000,0.0503056,
1994.000,0.0496547,
1993.000,0.049121,
1992.000,0.0487561,
1991.000,0.0485071,
1990.000,0.0483985,
1989.000,0.0485603,
1988.000,0.0488981,
1987.000,0.0489915,
1986.000,0.0485569,
1985.000,0.0478885,
1984.000,0.0476199,
1983.000,0.0480623,
1982.000,0.0488726,
1981.000,0.0493099,
1980.000,0.0487623,
1979.000,0.0472106,
1978.000,0.045387,
1977.000,0.0443571,
1976.000,0.0446672,
1975.000,0.0458893,
1974.000,0.0470555,
1973.000,0.047434,
1972.000,0.0468689,
1971.000,0.0456445,
1970.000,0.0442887,
1969.000,0.0433302,
1968.000,0.0429001,
1967.000,0.0426354,
1966.000,0.0422057,
1965.000,0.0417852,
1964.000,0.0417163,
1963.000,0.0419253,
1962.000,0.0420757,
1961.000,0.0421115,
1960.000,0.0422193,
1959.000,0.0423407,
1958.000,0.0421629,
1957.000,0.0416302,
1956.000,0.0410795,
1955.000,0.040807,
1954.000,0.040826,
1953.000,0.0411063,
1952.000,0.0417359,
1951.000,0.0427067,
1950.000,0.0437351,
1949.000,0.0443785,
1948.000,0.0442789,
1947.000,0.043358,
1946.000,0.0419538,
1945.000,0.0407467,
1944.000,0.0402771,
1943.000,0.0404503,
1942.000,0.0406545,
1941.000,0.0403991,
1940.000,0.0397738,
1939.000,0.0392797,
1938.000,0.0393655,
1937.000,0.0401296,
1936.000,0.0412476,
1935.000,0.0421963,
1934.000,0.0426841,
1933.000,0.0428121,
1932.000,0.0427869,
1931.000,0.0426758,
1930.000,0.042546,
1929.000,0.0425466,
1928.000,0.042659,
1927.000,0.0425972,
1926.000,0.0422162,
1925.000,0.0418411,
1924.000,0.0418677,
1923.000,0.0421759,
1922.000,0.0422338,
1921.000,0.04178,
1920.000,0.0410618,
1919.000,0.0404277,
1918.000,0.0401073,
1917.000,0.0402387,
1916.000,0.0406831,
1915.000,0.0409754,
1914.000,0.0408504,
1913.000,0.0407106,
1912.000,0.0411709,
1911.000,0.0422172,
1910.000,0.0431912,
1909.000,0.043562,
1908.000,0.043363,
1907.000,0.0428746,
1906.000,0.042328,
1905.000,0.0419954,
1904.000,0.0421094,
1903.000,0.0425509,
1902.000,0.0429127,
1901.000,0.0430199,
1900.000,0.0430808,
1899.000,0.0431997,
1898.000,0.0431659,
1897.000,0.0428807,
1896.000,0.0425567,
1895.000,0.0424001,
1894.000,0.0424172,
1893.000,0.0426025,
1892.000,0.0429706,
1891.000,0.0433096,
1890.000,0.0432738,
1889.000,0.0428671,
1888.000,0.0426006,
1887.000,0.0429356,
1886.000,0.043704,
1885.000,0.0443809,
1884.000,0.0446946,
1883.000,0.0446688,
1882.000,0.0443822,
1881.000,0.043991,
1880.000,0.0437926,
1879.000,0.0439689,
1878.000,0.0443393,
1877.000,0.044592,
1876.000,0.0446708,
1875.000,0.0448072,
1874.000,0.0452494,
1873.000,0.0459658,
1872.000,0.0465995,
1871.000,0.0468521,
1870.000,0.0469893,
1869.000,0.0477912,
1868.000,0.049614,
1867.000,0.0516135,
1866.000,0.0524833,
1865.000,0.0518291,
1864.000,0.0504976,
1863.000,0.0497359,
1862.000,0.0501428,
1861.000,0.0513292,
1860.000,0.0524064,
1859.000,0.0527587,
1858.000,0.0524466,
1857.000,0.0520099,
1856.000,0.0519343,
1855.000,0.0523159,
1854.000,0.0529907,
1853.000,0.0537669,
1852.000,0.0543903,
1851.000,0.0545045,
1850.000,0.0540368,
1849.000,0.053598,
1848.000,0.0539923,
1847.000,0.0553052,
1846.000,0.0568543,
1845.000,0.0580768,
1844.000,0.0590907,
1843.000,0.060153,
1842.000,0.0609703,
1841.000,0.0611251,
1840.000,0.0608111,
1839.000,0.0606814,
1838.000,0.0612416,
1837.000,0.0625254,
1836.000,0.0640978,
1835.000,0.0654371,
1834.000,0.0663225,
1833.000,0.0668169,
1832.000,0.0669985,
1831.000,0.0668808,
1830.000,0.0666558,
1829.000,0.0666909,
1828.000,0.0672664,
1827.000,0.0684952,
1826.000,0.0701599,
1825.000,0.0719908,
1824.000,0.0737997,
1823.000,0.075279,
1822.000,0.0762043,
1821.000,0.0767405,
1820.000,0.0773167,
1819.000,0.0781776,
1818.000,0.0793121,
1817.000,0.080756,
1816.000,0.0826168,
1815.000,0.084827,
1814.000,0.0870436,
1813.000,0.0889144,
1812.000,0.0903452,
1811.000,0.091444,
1810.000,0.0923984,
1809.000,0.0934219,
1808.000,0.0946944,
1807.000,0.0962494,
1806.000,0.0980668,
1805.000,0.100167,
1804.000,0.102405,
1803.000,0.104388,
1802.000,0.105888,
1801.000,0.107224,
1800.000,0.109004,
1799.000,0.111586,
1798.000,0.115087,
1797.000,0.119418,
1796.000,0.12406,
1795.000,0.12809,
1794.000,0.131012,
1793.000,0.133768,
1792.000,0.138421,
1791.000,0.145773,
1790.000,0.154305,
1789.000,0.16219,
1788.000,0.168742,
1787.000,0.174309,
1786.000,0.179936,
1785.000,0.186928,
1784.000,0.196043,
1783.000,0.206889,
1782.000,0.218381,
1781.000,0.229844,
1780.000,0.241255,
1779.000,0.252538,
1778.000,0.263751,
1777.000,0.275059,
1776.000,0.286452,
1775.000,0.297581,
1774.000,0.307671,
1773.000,0.316476,
1772.000,0.324572,
1771.000,0.330705,
1770.000,0.332664,
1769.000,0.331587,
1768.000,0.330454,
1767.000,0.331963,
1766.000,0.3374,
1765.000,0.345927,
1764.000,0.355922,
1763.000,0.367108,
1762.000,0.381257,
1761.000,0.399621,
1760.000,0.419695,
1759.000,0.436676,
1758.000,0.447796,
1757.000,0.454167,
1756.000,0.458323,
1755.000,0.460146,
1754.000,0.456989,
1753.000,0.44743,
1752.000,0.433481,
1751.000,0.41967,
1750.000,0.409393,
1749.000,0.401276,
1748.000,0.391841,
1747.000,0.379646,
1746.000,0.364374,
1745.000,0.345499,
1744.000,0.322679,
1743.000,0.296394,
1742.000,0.267481,
1741.000,0.236735,
1740.000,0.205864,
1739.000,0.177677,
1738.000,0.15389,
1737.000,0.133731,
1736.000,0.115483,
1735.000,0.0981396,
1734.000,0.0825816,
1733.000,0.0698405,
1732.000,0.0587289,
1731.000,0.0481687,
1730.000,0.0385746,
1729.000,0.0307841,
1728.000,0.0249659,
1727.000,0.0206084,
1726.000,0.016909,
1725.000,0.0132289,
1724.000,0.0095181,
1723.000,0.00616329,
1722.000,0.00345576,
1721.000,0.00144219,
1720.000,0.000628519,
1719.000,0.000965217,
1718.000,0.00145295,
1717.000,0.0027042,
1716.000,0.00412137,
1715.000,0.00425035,
1714.000,0.00317726,
1713.000,0.00217171,
1712.000,0.00193324,
1711.000,0.00164611,
1710.000,0.00111767,
1709.000,0.00130338,
1708.000,0.00216763,
1707.000,0.00290982,
1706.000,0.00329398,
1705.000,0.00351961,
1704.000,0.00402206,
1703.000,0.00487122,
1702.000,0.00597097,
1701.000,0.00767018,
1700.000,0.010575,
1699.000,0.0147934,
1698.000,0.0192808,
1697.000,0.0229132,
1696.000,0.0257989,
1695.000,0.0284538,
1694.000,0.0309463,
1693.000,0.0328111,
1692.000,0.0338127,
1691.000,0.0346281,
1690.000,0.0361366,
1689.000,0.0387111,
1688.000,0.04199,
1687.000,0.0454229,
1686.000,0.0488505,
1685.000,0.0525148,
1684.000,0.0568128,
1683.000,0.0605932,
1682.000,0.0625236,
1681.000,0.0638485,
1680.000,0.0655542,
1679.000,0.0675567,
1678.000,0.0692456,
1677.000,0.0705084,
1676.000,0.0720048,
1675.000,0.0747833,
1674.000,0.0793323,
1673.000,0.0845694,
1672.000,0.08875,
1671.000,0.0915974,
1670.000,0.09482,
1669.000,0.100277,
1668.000,0.107913,
1667.000,0.115958,
1666.000,0.122719,
1665.000,0.128146,
1664.000,0.133654,
1663.000,0.141272,
1662.000,0.151694,
1661.000,0.164553,
1660.000,0.177527,
1659.000,0.188906,
1658.000,0.201913,
1657.000,0.214796,
1656.000,0.228391,
1655.000,0.242839,
1654.000,0.257763,
1653.000,0.271205,
1652.000,0.281559,
1651.000,0.290051,
1650.000,0.299262,
1649.000,0.31028,
1648.000,0.323542,
1647.000,0.336828,
1646.000,0.350105,
1645.000,0.35969,
1644.000,0.37381,
1643.000,0.396076,
1642.000,0.403125,
1641.000,0.413122,
1640.000,0.422672,
1639.000,0.431987,
1638.000,0.43931,
1637.000,0.446389,
1636.000,0.454674,
1635.000,0.463506,
1634.000,0.47278,
1633.000,0.4856,
1632.000,0.499772,
1631.000,0.513705,
1630.000,0.528212,
1629.000,0.544536,
1628.000,0.564342,
1627.000,0.586426,
1626.000,0.606278,
1625.000,0.621325,
1624.000,0.634256,
1623.000,0.650161,
1622.000,0.668538,
1621.000,0.682854,
1620.000,0.688993,
1619.000,0.688911,
1618.000,0.687461,
1617.000,0.686595,
1616.000,0.682611,
1615.000,0.667688,
1614.000,0.640722,
1613.000,0.61043,
1612.000,0.586553,
1611.000,0.572969,
1610.000,0.568022,
1609.000,0.568349,
1608.000,0.571021,
1607.000,0.573573,
1606.000,0.57407,
1605.000,0.572044,
1604.000,0.568208,
1603.000,0.562768,
1602.000,0.554971,
1601.000,0.544234,
1600.000,0.531273,
1599.000,0.51759,
1598.000,0.504229,
1597.000,0.491337,
1596.000,0.478506,
1595.000,0.465118,
1594.000,0.450737,
1593.000,0.435655,
1592.000,0.420756,
1591.000,0.406631,
1590.000,0.393223,
1589.000,0.38035,
1588.000,0.368138,
1587.000,0.356648,
1586.000,0.345769,
1585.000,0.335035,
1584.000,0.324713,
1583.000,0.313988,
1582.000,0.302433,
1581.000,0.29181,
1580.000,0.280909,
1579.000,0.270814,
1578.000,0.261883,
1577.000,0.254466,
1576.000,0.248343,
1575.000,0.242779,
1574.000,0.236826,
1573.000,0.230181,
1572.000,0.223126,
1571.000,0.215893,
1570.000,0.208443,
1569.000,0.200857,
1568.000,0.193591,
1567.000,0.186963,
1566.000,0.180726,
1565.000,0.174458,
1564.000,0.168115,
1563.000,0.161922,
1562.000,0.155993,
1561.000,0.15035,
1560.000,0.145205,
1559.000,0.140745,
1558.000,0.13634,
1557.000,0.131428,
1556.000,0.126152,
1555.000,0.121635,
1554.000,0.117237,
1553.000,0.114277,
1552.000,0.112549,
1551.000,0.107902,
1550.000,0.104101,
1549.000,0.100589,
1548.000,0.0977013,
1547.000,0.0949347,
1546.000,0.0919787,
1545.000,0.0888611,
1544.000,0.0861799,
1543.000,0.084246,
1542.000,0.0831852,
1541.000,0.0832552,
1540.000,0.0839555,
1539.000,0.0830513,
1538.000,0.0800518,
1537.000,0.0762433,
1536.000,0.0716226,
1535.000,0.0672847,
1534.000,0.0644494,
1533.000,0.0634587,
1532.000,0.063344,
1531.000,0.0630444,
1530.000,0.0622899,
1529.000,0.0611011,
1528.000,0.0597854,
1527.000,0.0585998,
1526.000,0.0573576,
1525.000,0.0558397,
1524.000,0.0542951,
1523.000,0.0532243,
1522.000,0.0529307,
1521.000,0.0530342,
1520.000,0.0526061,
1519.000,0.0512926,
1518.000,0.0495799,
1517.000,0.0483433,
1516.000,0.0480422,
1515.000,0.0482219,
1514.000,0.0480965,
1513.000,0.0472465,
1512.000,0.0461494,
1511.000,0.0456976,
1510.000,0.0460341,
1509.000,0.046471,
1508.000,0.0465153,
1507.000,0.0462632,
1506.000,0.0449415,
1505.000,0.042722,
1504.000,0.0409153,
1503.000,0.0388288,
1502.000,0.0366821,
1501.000,0.0352922,
1500.000,0.0348622,
1499.000,0.0350025,
1498.000,0.0351763,
1497.000,0.0352125,
1496.000,0.0355813,
1495.000,0.0367642,
1494.000,0.0380811,
1493.000,0.0381516,
1492.000,0.0365185,
1491.000,0.0339393,
1490.000,0.03139,
1489.000,0.0291826,
1488.000,0.0275163,
1487.000,0.0271052,
1486.000,0.028205,
1485.000,0.0299212,
1484.000,0.0309754,
1483.000,0.0308837,
1482.000,0.0302735,
1481.000,0.0300684,
1480.000,0.0304047,
1479.000,0.0305098,
1478.000,0.0296218,
1477.000,0.027922,
1476.000,0.0263727,
1475.000,0.0256238,
1474.000,0.0253048,
1473.000,0.0246712,
1472.000,0.0236386,
1471.000,0.0228367,
1470.000,0.0226729,
1469.000,0.0227715,
1468.000,0.0228248,
1467.000,0.0229584,
1466.000,0.023196,
1465.000,0.023275,
1464.000,0.0229363,
1463.000,0.0223789,
1462.000,0.0220297,
1461.000,0.0218895,
1460.000,0.0217049,
1459.000,0.0214492,
1458.000,0.0212516,
1457.000,0.0210271,
1456.000,0.0205872,
1455.000,0.0201694,
1454.000,0.0199606,
1453.000,0.0198223,
1452.000,0.0196861,
1451.000,0.019565,
1450.000,0.0197121,
1449.000,0.0204622,
1448.000,0.0218314,
1447.000,0.0233377,
1446.000,0.0243614,
1445.000,0.0246802,
1444.000,0.0245075,
1443.000,0.024168,
1442.000,0.0239048,
1441.000,0.0238089,
1440.000,0.0237574,
1439.000,0.0234129,
1438.000,0.0225195,
1437.000,0.0213184,
1436.000,0.0204421,
1435.000,0.0201024,
1434.000,0.0197873,
1433.000,0.0190828,
1432.000,0.0182715,
1431.000,0.0179046,
1430.000,0.0181433,
1429.000,0.0186909,
1428.000,0.0192167,
1427.000,0.0195564,
1426.000,0.0195538,
1425.000,0.0191739,
1424.000,0.0187501,
1423.000,0.0187198,
1422.000,0.0192124,
1421.000,0.0200842,
1420.000,0.0211721,
1419.000,0.0223684,
1418.000,0.0233533,
1417.000,0.0236577,
1416.000,0.0233423,
1415.000,0.0228829,
1414.000,0.0225122,
1413.000,0.0221606,
1412.000,0.0218182,
1411.000,0.0216431,
1410.000,0.0216992,
1409.000,0.0218952,
1408.000,0.022167,
1407.000,0.0223516,
1406.000,0.0220122,
1405.000,0.0208934,
1404.000,0.0194504,
1403.000,0.0185471,
1402.000,0.0185511,
1401.000,0.0190042,
1400.000,0.0194367,
1399.000,0.0198529,
1398.000,0.0201278,
1397.000,0.0198416,
1396.000,0.019042,
1395.000,0.0184423,
1394.000,0.0185742,
1393.000,0.0191063,
1392.000,0.0192733,
1391.000,0.0187761,
1390.000,0.0179887,
1389.000,0.0174275,
1388.000,0.0172754,
1387.000,0.0173444,
1386.000,0.017337,
1385.000,0.0171566,
1384.000,0.0169885,
1383.000,0.0170754,
1382.000,0.0173191,
1381.000,0.0172849,
1380.000,0.0168474,
1379.000,0.0163698,
1378.000,0.016246,
1377.000,0.0166286,
1376.000,0.0173332,
1375.000,0.01792,
1374.000,0.0180056,
1373.000,0.0176784,
1372.000,0.0174838,
1371.000,0.0176751,
1370.000,0.017953,
1369.000,0.0181029,
1368.000,0.0184393,
1367.000,0.0194225,
1366.000,0.0208378,
1365.000,0.0217291,
1364.000,0.0213492,
1363.000,0.0198242,
1362.000,0.0178612,
1361.000,0.0161911,
1360.000,0.0152695,
1359.000,0.015212,
1358.000,0.0157709,
1357.000,0.0164514,
1356.000,0.0169469,
1355.000,0.0172635,
1354.000,0.0174101,
1353.000,0.0173997,
1352.000,0.0173798,
1351.000,0.0174291,
1350.000,0.0173677,
1349.000,0.016969,
1348.000,0.0163845,
1347.000,0.0161225,
1346.000,0.0164426,
1345.000,0.0170935,
1344.000,0.0177191,
1343.000,0.0180917,
1342.000,0.0180744,
1341.000,0.0176782,
1340.000,0.0171818,
1339.000,0.0169252,
1338.000,0.0168,
1337.000,0.0165081,
1336.000,0.0161521,
1335.000,0.0159856,
1334.000,0.0160708,
1333.000,0.0162726,
1332.000,0.0162953,
1331.000,0.0159657,
1330.000,0.0155161,
1329.000,0.0154873,
1328.000,0.016351,
1327.000,0.0180567,
1326.000,0.0198611,
1325.000,0.0208055,
1324.000,0.0204924,
1323.000,0.0193198,
1322.000,0.0180326,
1321.000,0.0171915,
1320.000,0.0169312,
1319.000,0.0169534,
1318.000,0.0166904,
1317.000,0.0157838,
1316.000,0.0145955,
1315.000,0.0138938,
1314.000,0.0138911,
1313.000,0.0139689,
1312.000,0.013455,
1311.000,0.0123072,
1310.000,0.0110244,
1309.000,0.0102077,
1308.000,0.0102561,
1307.000,0.0112155,
1306.000,0.0125133,
1305.000,0.0132477,
1304.000,0.0131435,
1303.000,0.0127844,
1302.000,0.0127968,
1301.000,0.0131262,
1300.000,0.0133292,
1299.000,0.0132641,
1298.000,0.0131777,
1297.000,0.0134345,
1296.000,0.0143602,
1295.000,0.0159313,
1294.000,0.0175788,
1293.000,0.0186579,
1292.000,0.0190571,
1291.000,0.0191104,
1290.000,0.0189624,
1289.000,0.0184223,
1288.000,0.0175604,
1287.000,0.017001,
1286.000,0.0173049,
1285.000,0.018234,
1284.000,0.0189926,
1283.000,0.0191659,
1282.000,0.018917,
1281.000,0.0185419,
1280.000,0.0182753,
1279.000,0.0182209,
1278.000,0.0183726,
1277.000,0.0185674,
1276.000,0.0185499,
1275.000,0.0182994,
1274.000,0.0179741,
1273.000,0.0176674,
1272.000,0.0174276,
1271.000,0.0173563,
1270.000,0.0175676,
1269.000,0.0179489,
1268.000,0.0181278,
1267.000,0.0178564,
1266.000,0.0172718,
1265.000,0.0168052,
1264.000,0.016786,
1263.000,0.0170986,
1262.000,0.0174507,
1261.000,0.0177913,
1260.000,0.0182767,
1259.000,0.0190285,
1258.000,0.0200465,
1257.000,0.0211923,
1256.000,0.0222047,
1255.000,0.0228768,
1254.000,0.0231577,
1253.000,0.0231553,
1252.000,0.0231324,
1251.000,0.0232752,
1250.000,0.0234439,
1249.000,0.0233358,
1248.000,0.0228815,
1247.000,0.0223274,
1246.000,0.0219385,
1245.000,0.0218841,
1244.000,0.0223706,
1243.000,0.0235246,
1242.000,0.0251683,
1241.000,0.0268979,
1240.000,0.0283654,
1239.000,0.0293576,
1238.000,0.0296481,
1237.000,0.0291248,
1236.000,0.0281603,
1235.000,0.0274673,
1234.000,0.0273437,
1233.000,0.027367,
1232.000,0.0270403,
1231.000,0.0265231,
1230.000,0.0263995,
1229.000,0.0267276,
1228.000,0.0267922,
1227.000,0.025786,
1226.000,0.0234784,
1225.000,0.0204469,
1224.000,0.0176743,
1223.000,0.0157699,
1222.000,0.014644,
1221.000,0.0139723,
1220.000,0.0137354,
1219.000,0.0140583,
1218.000,0.0146807,
1217.000,0.0150266,
1216.000,0.0149036,
1215.000,0.0147889,
1214.000,0.0152205,
1213.000,0.0161326,
1212.000,0.0170489,
1211.000,0.0176219,
1210.000,0.0177209,
1209.000,0.0174041,
1208.000,0.0171224,
1207.000,0.0176482,
1206.000,0.0193843,
1205.000,0.0217377,
1204.000,0.02354,
1203.000,0.0241431,
1202.000,0.0239186,
1201.000,0.023846,
1200.000,0.0247384,
1199.000,0.0265414,
1198.000,0.0281387,
1197.000,0.0282663,
1196.000,0.0269299,
1195.000,0.0256055,
1194.000,0.0257694,
1193.000,0.0274447,
1192.000,0.0294585,
1191.000,0.0308547,
1190.000,0.0315633,
1189.000,0.0319149,
1188.000,0.0322062,
1187.000,0.0325565,
1186.000,0.0327489,
1185.000,0.0324637,
1184.000,0.0317774,
1183.000,0.0314371,
1182.000,0.0324787,
1181.000,0.0351156,
1180.000,0.0381811,
1179.000,0.0401496,
1178.000,0.0406141,
1177.000,0.0404657,
1176.000,0.0407112,
1175.000,0.0414254,
1174.000,0.0419759,
1173.000,0.0420368,
1172.000,0.0420595,
1171.000,0.0427679,
1170.000,0.0444301,
1169.000,0.046658,
1168.000,0.0487648,
1167.000,0.0502714,
1166.000,0.0512743,
1165.000,0.0523028,
1164.000,0.0536577,
1163.000,0.0551702,
1162.000,0.0566574,
1161.000,0.0582589,
1160.000,0.0601982,
1159.000,0.0623456,
1158.000,0.0643859,
1157.000,0.0665198,
1156.000,0.0694395,
1155.000,0.0732027,
1154.000,0.0767029,
1153.000,0.0789288,
1152.000,0.0803188,
1151.000,0.0821677,
1150.000,0.0849208,
1149.000,0.0877433,
1148.000,0.0899098,
1147.000,0.092034,
1146.000,0.0954906,
1145.000,0.100835,
1144.000,0.107109,
1143.000,0.112703,
1142.000,0.116743,
1141.000,0.119658,
1140.000,0.122445,
1139.000,0.125529,
1138.000,0.128478,
1137.000,0.130699,
1136.000,0.132104,
1135.000,0.132947,
1134.000,0.133319,
1133.000,0.132927,
1132.000,0.131131,
1131.000,0.127246,
1130.000,0.121103,
1129.000,0.113419,
1128.000,0.105043,
1127.000,0.0956297,
1126.000,0.0839511,
1125.000,0.0698854,
1124.000,0.0555293,
1123.000,0.0435848,
1122.000,0.0349687,
1121.000,0.0288291,
1120.000,0.0245024,
1119.000,0.0221235,
1118.000,0.021444,
1117.000,0.0215857,
1116.000,0.0222119,
1115.000,0.0240855,
1114.000,0.0278897,
1113.000,0.0331555,
1112.000,0.0390169,
1111.000,0.0452952,
1110.000,0.0523377,
1109.000,0.0601542,
1108.000,0.0681854,
1107.000,0.0757775,
1106.000,0.0826461,
1105.000,0.0890435,
1104.000,0.095443,
1103.000,0.101833,
1102.000,0.107309,
1101.000,0.110871,
1100.000,0.112802,
1099.000,0.11464,
1098.000,0.117612,
1097.000,0.121357,
1096.000,0.124326,
1095.000,0.125294,
1094.000,0.124118,
1093.000,0.121253,
1092.000,0.117156,
1091.000,0.112321,
1090.000,0.107525,
1089.000,0.103865,
1088.000,0.102457,
1087.000,0.10364,
1086.000,0.10626,
1085.000,0.108181,
1084.000,0.107957,
1083.000,0.10573,
1082.000,0.102483,
1081.000,0.0989606,
1080.000,0.095273,
1079.000,0.091165,
1078.000,0.0866124,
1077.000,0.0820589,
1076.000,0.077974,
1075.000,0.0743035,
1074.000,0.0707591,
1073.000,0.0675948,
1072.000,0.065562,
1071.000,0.0647798,
1070.000,0.0640027,
1069.000,0.0617708,
1068.000,0.0582815,
1067.000,0.0553398,
1066.000,0.0542297,
1065.000,0.0543255,
1064.000,0.0538607,
1063.000,0.0515906,
1062.000,0.0477548,
1061.000,0.0437475,
1060.000,0.040947,
1059.000,0.0394979,
1058.000,0.0380665,
1057.000,0.0352073,
1056.000,0.031074,
1055.000,0.0274362,
1054.000,0.0260489,
1053.000,0.0272748,
1052.000,0.0302228,
1051.000,0.0335386,
1050.000,0.0359301,
1049.000,0.0367798,
1048.000,0.036622,
1047.000,0.0366118,
1046.000,0.0373699,
1045.000,0.0386546,
1044.000,0.0399065,
1043.000,0.0406487,
1042.000,0.0405706,
1041.000,0.0395908,
1040.000,0.0379336,
1039.000,0.0360285,
1038.000,0.0341277,
1037.000,0.0322497,
1036.000,0.0307214,
1035.000,0.0300202,
1034.000,0.0296546,
1033.000,0.0284738,
1032.000,0.0265631,
1031.000,0.0252602,
1030.000,0.0249934,
1029.000,0.0245039,
1028.000,0.0225239,
1027.000,0.0193242,
1026.000,0.0163429,
1025.000,0.0147517,
1024.000,0.0148092,
1023.000,0.0160907,
1022.000,0.0175974,
1021.000,0.0183837,
1020.000,0.0184853,
1019.000,0.0186847,
1018.000,0.0191633,
1017.000,0.0190082,
1016.000,0.017612,
1015.000,0.0159921,
1014.000,0.0156507,
1013.000,0.0165579,
1012.000,0.0174664,
1011.000,0.0175388,
1010.000,0.0169186,
1009.000,0.0160631,
1008.000,0.0151467,
1007.000,0.0142746,
1006.000,0.0136729,
1005.000,0.0134922,
1004.000,0.0137009,
1003.000,0.0140732,
1002.000,0.0142429,
1001.000,0.0138884,
1000.000,0.0129408,
999.000,0.0118647,
998.000,0.0112504,
997.000,0.0108938,
996.000,0.0101866,
995.000,0.00920258,
994.000,0.00857212,
993.000,0.00857158,
992.000,0.00878434,
991.000,0.00880061,
990.000,0.00888559,
989.000,0.009172,
988.000,0.00892732,
987.000,0.00759459,
986.000,0.00572052,
985.000,0.00439214,
984.000,0.00412339,
983.000,0.00436614,
982.000,0.00420924,
981.000,0.00337316,
980.000,0.00244955,
979.000,0.00187454,
978.000,0.00182618,
977.000,0.00261755,
976.000,0.00362826,
975.000,0.00395461,
974.000,0.00345582,
973.000,0.00290133,
972.000,0.00306458,
971.000,0.00372776,
970.000,0.0044832,
969.000,0.00486756,
968.000,0.00419816,
967.000,0.00265021,
966.000,0.00103209,
965.000,0.000400492,
964.000,0.00119466,
963.000,0.0021489,
962.000,0.00255847,
961.000,0.00206407,
960.000,0.00143623,
959.000,0.00152632,
958.000,0.00133027,
957.000,0.00146433,
956.000,0.00250788,
955.000,0.00314887,
954.000,0.00337103,
953.000,0.0024659,
952.000,0.0016068,
951.000,0.0035095,
950.000,0.00549569,
949.000,0.0057644,
948.000,0.0051218,
947.000,0.00428303,
946.000,0.00382234,
945.000,0.0028857,
944.000,0.00193369,
943.000,0.00259763,
942.000,0.00368212,
941.000,0.00431973,
940.000,0.00493405,
939.000,0.00510312,
938.000,0.00393329,
937.000,0.00239211,
936.000,0.00358282,
935.000,0.00584493,
934.000,0.00634942,
933.000,0.00471489,
932.000,0.00235258,
931.000,0.00152131,
930.000,0.00174016,
929.000,0.00275946,
928.000,0.00391555,
927.000,0.00357908,
926.000,0.00280544,
925.000,0.00297983,
924.000,0.00236862,
923.000,0.00155629,
922.000,0.00260494,
921.000,0.00369597,
920.000,0.00394589,
919.000,0.00399499,
918.000,0.00436548,
917.000,0.00541596,
916.000,0.00614737,
915.000,0.00579285,
914.000,0.00397567,
913.000,0.00243503,
912.000,0.00347796,
911.000,0.00498214,
910.000,0.00468872,
909.000,0.0030421,
908.000,0.00304638,
907.000,0.0050047,
906.000,0.005575,
905.000,0.00492745,
904.000,0.00550277,
903.000,0.00608779,
902.000,0.00543775,
901.000,0.0033302,
900.000,0.00124563,
899.000,0.00327236,
898.000,0.00653023,
897.000,0.00774176,
896.000,0.00719166,
895.000,0.00513169,
894.000,0.00272385,
893.000,0.00149089,
892.000,0.00203471,
891.000,0.00192825,
890.000,0.000814687,
889.000,0.00229639,
888.000,0.00326027,
887.000,0.00154337,
886.000,0.00296976,
885.000,0.00482296,
884.000,0.00276636,
883.000,0.0028999,
882.000,0.00601445,
881.000,0.00723268,
880.000,0.00588297,
879.000,0.00259442,
878.000,0.00257803,
877.000,0.00647503,
876.000,0.00867388,
875.000,0.00881305,
874.000,0.00735047,
873.000,0.00494901,
872.000,0.00462668,
871.000,0.00680635,
870.000,0.00682284,
869.000,0.00511148,
868.000,0.00268226,
867.000,0.00058354,
866.000,0.0028197,
865.000,0.00479958,
864.000,0.00533374,
863.000,0.00602866,
862.000,0.00650177,
861.000,0.00676068,
860.000,0.00545182,
859.000,0.00270692,
858.000,0.00270993,
857.000,0.0063997,
856.000,0.00922821,
855.000,0.0101137,
854.000,0.00918527,
853.000,0.00733467,
852.000,0.00554237,
851.000,0.00418822,
850.000,0.00494278,
849.000,0.00715206,
848.000,0.00884813,
847.000,0.00967037,
846.000,0.00968392,
845.000,0.00890775,
844.000,0.00778238,
843.000,0.0069882,
842.000,0.00668694,
841.000,0.00672446,
840.000,0.00704423,
839.000,0.00735012,
838.000,0.00738999,
837.000,0.00740322,
836.000,0.00796615,
835.000,0.0081609,
834.000,0.00686761,
833.000,0.00365281,
832.000,0.00146192,
831.000,0.00292458,
830.000,0.00333443,
829.000,0.0016836,
828.000,0.00212851,
827.000,0.00410742,
826.000,0.00431613,
825.000,0.00284745,
824.000,0.00135556,
823.000,0.000815477,
822.000,0.0014248,
821.000,0.0028202,
820.000,0.00320941,
819.000,0.00344549,
818.000,0.00516189,
817.000,0.00660088,
816.000,0.00707447,
815.000,0.00703179,
814.000,0.0068489,
813.000,0.00654653,
812.000,0.0059574,
811.000,0.00528549,
810.000,0.00496986,
809.000,0.00490977,
808.000,0.00424847,
807.000,0.00324963,
806.000,0.00298777,
805.000,0.00334708,
804.000,0.00287342,
803.000,0.00209869,
802.000,0.00303113,
801.000,0.00424836,
800.000,0.00415731,
799.000,0.00272461,
798.000,0.00221045,
797.000,0.00389261,
796.000,0.00466821,
795.000,0.00411263,
794.000,0.00428421,
793.000,0.00510936,
792.000,0.00506254,
791.000,0.00479332,
790.000,0.00479368,
789.000,0.00389693,
788.000,0.00254489,
787.000,0.00128419,
786.000,0.00156985,
785.000,0.00397766,
784.000,0.00629894,
783.000,0.00755467,
782.000,0.00832862,
781.000,0.00795924,
780.000,0.00661141,
779.000,0.00312573,
778.000,0.00119176,
777.000,0.00493029,
776.000,0.0060308,
775.000,0.00485253,
774.000,0.00372301,
773.000,0.00282003,
772.000,0.00194058,
771.000,0.000905996,
770.000,0.00359828,
769.000,0.00778545,
768.000,0.0109807,
767.000,0.0114815,
766.000,0.00853761,
765.000,0.00334165,
764.000,0.00213939,
763.000,0.00664817,
762.000,0.00923989,
761.000,0.0089867,
760.000,0.00759203,
759.000,0.00621659,
758.000,0.00568057,
757.000,0.00565661,
756.000,0.00551559,
755.000,0.00454207,
754.000,0.00318071,
753.000,0.00205611,
752.000,0.00261294,
751.000,0.00436622,
750.000,0.00557224,
749.000,0.00602959,
748.000,0.00631317,
747.000,0.00655949,
746.000,0.00608878,
745.000,0.00506716,
744.000,0.00420058,
743.000,0.00351146,
742.000,0.00222103,
741.000,0.00173167,
740.000,0.00328501,
739.000,0.00462993,
738.000,0.00575096,
737.000,0.00679687,
736.000,0.00600398,
735.000,0.00357735,
734.000,0.00322458,
733.000,0.00462866,
732.000,0.00423016,
731.000,0.00230697,
730.000,0.00121539,
729.000,0.00243988,
728.000,0.00423337,
727.000,0.00602503,
726.000,0.00755929,
725.000,0.00803839,
724.000,0.00689406,
723.000,0.00474189,
722.000,0.00225399,
721.000,0.000312944,
720.000,0.00170554,
719.000,0.00472376,
718.000,0.00660052,
717.000,0.00646128,
716.000,0.00557648,
715.000,0.00613242,
714.000,0.00813416,
713.000,0.00956829,
712.000,0.00954972,
711.000,0.00939002,
710.000,0.00984371,
709.000,0.0102293,
708.000,0.00939094,
707.000,0.00749671,
706.000,0.00523275,
705.000,0.00317913,
704.000,0.00328804,
703.000,0.00438112,
702.000,0.00373232,
701.000,0.00248674,
700.000,0.00251496,
699.000,0.00367261,
698.000,0.00507561,
697.000,0.00639786,
696.000,0.00645381,
695.000,0.00537541,
694.000,0.00297023,
693.000,0.000834783,
692.000,0.00272554,
691.000,0.00463484,
690.000,0.00489995,
689.000,0.00417758,
688.000,0.00419409,
687.000,0.0070049,
686.000,0.0105518,
685.000,0.0126431,
684.000,0.0119772,
683.000,0.00968197,
682.000,0.00611211,
681.000,0.0024093,
680.000,0.00361054,
679.000,0.00734914,
678.000,0.00975097,
677.000,0.0103601,
676.000,0.00924341,
675.000,0.00743239,
674.000,0.00642211,
673.000,0.00698409,
672.000,0.0075698,
671.000,0.00763551,
670.000,0.00796019,
669.000,0.00757404,
668.000,0.00496921,
667.000,0.00343048,
666.000,0.0050459,
665.000,0.00578982,
664.000,0.00550291,
663.000,0.00575147,
662.000,0.0067399,
661.000,0.00754976,
660.000,0.00741483,
659.000,0.00759977,
658.000,0.00910056,
657.000,0.011565,
656.000,0.0129822,
655.000,0.0116205,
654.000,0.00749061,
653.000,0.00306426,
652.000,0.00230043,
651.000,0.0030661,
650.000,0.00253649,
649.000,0.00190116,
648.000,0.00201736,
647.000,0.00258614,
646.000,0.0036238,
645.000,0.00634045,
644.000,0.0100215,
643.000,0.0126467,
642.000,0.013122,
641.000,0.0115476,
640.000,0.00905084,
639.000,0.00742182,
638.000,0.00752475,
637.000,0.00871591,
636.000,0.0105694,
635.000,0.0130006,
634.000,0.0148288,
633.000,0.0142221,
632.000,0.0100101,
631.000,0.00508843,
630.000,0.00491616,
629.000,0.00526649,
628.000,0.00285259,
627.000,0.0028443,
626.000,0.00368619,
625.000,0.00275607,
624.000,0.00196623,
623.000,0.000856833,
622.000,0.00242264,
621.000,0.00577271,
620.000,0.00677656,
619.000,0.00667979,
618.000,0.00787538,
617.000,0.0102121,
616.000,0.0127292,
615.000,0.0152112,
614.000,0.0177246,
613.000,0.0190839,
612.000,0.0182718,
611.000,0.0168122,
610.000,0.0168215,
609.000,0.016891,
608.000,0.0158678,
607.000,0.0141066,
606.000,0.0121828,
605.000,0.00674438,
604.000,0.00207747,
603.000,0.00772435,
602.000,0.0125399,
601.000,0.0155585,
600.000,0.018947,
599.000,0.0215981,
598.000,0.0225475,
597.000,0.0200315,
596.000,0.0147513,
595.000,0.00955358,
594.000,0.0103634,
593.000,0.0154799,
592.000,0.0183901,
591.000,0.0156196,
590.000,0.00778175,
589.000,0.00580041,
588.000,0.0118347,
587.000,0.0142335,
586.000,0.0117251,
585.000,0.00795411,
584.000,0.00632898,
583.000,0.00610893,
582.000,0.0059989,
581.000,0.00622468,
580.000,0.00609805,
579.000,0.00652091,
578.000,0.00624511,
577.000,0.00617354,
576.000,0.00695735,
575.000,0.00665307,
574.000,0.00707378,
573.000,0.00771029,
572.000,0.00777829,
571.000,0.0081612,
570.000,0.00675092,
569.000,0.0026811,
568.000,0.00265515,
567.000,0.00924006,
566.000,0.0152214,
565.000,0.0172763,
564.000,0.0143051,
563.000,0.0100882,
562.000,0.0106881,
561.000,0.013411,
560.000,0.0135038,
559.000,0.0102622,
558.000,0.00585586,
557.000,0.00488987,
556.000,0.0103306,
555.000,0.0177292,
554.000,0.0207635,
553.000,0.0168723,
552.000,0.00868389,
551.000,0.00391491,
550.000,0.0080763,
549.000,0.012758,
548.000,0.0159379,
547.000,0.0134993,
546.000,0.00414939,
545.000,0.00959154,
544.000,0.0214044,
543.000,0.0244368,
542.000,0.0180282,
541.000,0.00837649,
540.000,0.00546471,
539.000,0.00708392,
538.000,0.00715883,
537.000,0.00491664,
536.000,0.00346342,
535.000,0.00620624,
534.000,0.00815881,
533.000,0.00894364,
532.000,0.0114248,
531.000,0.0131806,
530.000,0.0124173,
529.000,0.0105002,
528.000,0.00835114,
527.000,0.00672277,
526.000,0.00823675,
525.000,0.0138177,
524.000,0.0194072,
523.000,0.020342,
522.000,0.016403,
521.000,0.0131213,
520.000,0.0107637,
519.000,0.00476276,
518.000,0.00907667,
517.000,0.0222008,
516.000,0.0277858,
515.000,0.0199569,
514.000,0.00621676,
513.000,0.00739068,
512.000,0.0143524,
511.000,0.0205821,
510.000,0.0296696,
509.000,0.0352189,
508.000,0.0295534,
507.000,0.0156814,
506.000,0.0149909,
505.000,0.0181467,
504.000,0.00985661,
503.000,0.0110115,
502.000,0.0209078,
501.000,0.023707,
500.000,0.0237739,
499.000,0.0270264,
498.000,0.0309073,
497.000,0.0340991,
496.000,0.0369779,
495.000,0.0411913,
494.000,0.0467941,
493.000,0.0472377,
492.000,0.0402478,
491.000,0.0335599,
490.000,0.0334448,
489.000,0.0359121,
488.000,0.0365429,
487.000,0.0346684,
486.000,0.031303,
485.000,0.0290435,
484.000,0.0313866,
483.000,0.0374444,
482.000,0.039479,
481.000,0.0315854,
480.000,0.0221437,
479.000,0.0184297,
478.000,0.0134995,
477.000,0.0162126,
476.000,0.0267761,
475.000,0.0240952,
474.000,0.00809891,
473.000,0.0127115,
472.000,0.0233561,
471.000,0.0215745,
470.000,0.0223862,
469.000,0.0256918,
468.000,0.0278307,
467.000,0.040303,
466.000,0.0598432,
465.000,0.0696488,
464.000,0.0621887,
463.000,0.0445649,
462.000,0.022832,
461.000,0.0121052,
460.000,0.0332777,
459.000,0.0601328,
458.000,0.0809657,
457.000,0.0898604,
456.000,0.0675525,
455.000,0.0210697,
454.000,0.0353807,
453.000,0.0733583,
452.000,0.0873675,
451.000,0.0821934,
450.000,0.0692068,
449.000,0.0601975,
448.000,0.0585401,
447.000,0.0617562,
446.000,0.0604956,
445.000,0.0539977,
444.000,0.0542768,
443.000,0.0716322,
442.000,0.0981673,
441.000,0.11702,
440.000,0.113167,
439.000,0.0872458,
438.000,0.0429501,
437.000,0.00929256,
436.000,0.0303707,
435.000,0.0394268,
434.000,0.0306942,
433.000,0.0211527,
432.000,0.0111661,
431.000,0.00553681,
430.000,0.0284336,
429.000,0.0435449,
428.000,0.0396311,
427.000,0.0310446,
426.000,0.0491167,
425.000,0.0815244,
424.000,0.098533,
423.000,0.0944676,
422.000,0.0795421,
421.000,0.0645738,
420.000,0.0487407,
419.000,0.027029,
418.000,0.018544,
417.000,0.0230327,
416.000,0.0186383,
415.000,0.0300587,
414.000,0.0518141,
413.000,0.0844234,
412.000,0.124586,
411.000,0.159384,
410.000,0.182108,
409.000,0.183363,
408.000,0.140589,
407.000,0.0771701,
406.000,0.122822,
405.000,0.222149,
404.000,0.287279,
403.000,0.324645,
402.000,0.337538,
401.000,0.289826,
400.000,0.182013,
