,d2o 185 By Administrator Date Thursday. December 16 2021,
Time,15:21:53,
Wavenumbers [1/cm],Transmittance %,
7000.000,10.119,
6999.000,10.0655,
6998.000,10.0095,
6997.000,9.95174,
6996.000,9.89639,
6995.000,9.84829,
6994.000,9.80738,
6993.000,9.76918,
6992.000,9.72971,
6991.000,9.6877,
6990.000,9.64297,
6989.000,9.5954,
6988.000,9.54542,
6987.000,9.49416,
6986.000,9.44353,
6985.000,9.39639,
6984.000,9.35432,
6983.000,9.3144,
6982.000,9.271,
6981.000,9.22254,
6980.000,9.17382,
6979.000,9.12992,
6978.000,9.09016,
6977.000,9.05072,
6976.000,9.011,
6975.000,8.97325,
6974.000,8.93721,
6973.000,8.89907,
6972.000,8.85581,
6971.000,8.80854,
6970.000,8.76078,
6969.000,8.71514,
6968.000,8.67211,
6967.000,8.63119,
6966.000,8.59228,
6965.000,8.55545,
6964.000,8.51931,
6963.000,8.48083,
6962.000,8.43873,
6961.000,8.39575,
6960.000,8.35492,
6959.000,8.31484,
6958.000,8.27232,
6957.000,8.22846,
6956.000,8.18756,
6955.000,8.14963,
6954.000,8.1096,
6953.000,8.06639,
6952.000,8.02631,
6951.000,7.99408,
6950.000,7.96619,
6949.000,7.9368,
6948.000,7.90622,
6947.000,7.87796,
6946.000,7.85042,
6945.000,7.81826,
6944.000,7.78044,
6943.000,7.74074,
6942.000,7.70146,
6941.000,7.66161,
6940.000,7.62081,
6939.000,7.58012,
6938.000,7.53841,
6937.000,7.49294,
6936.000,7.44473,
6935.000,7.3994,
6934.000,7.36135,
6933.000,7.32999,
6932.000,7.30225,
6931.000,7.27602,
6930.000,7.24943,
6929.000,7.21978,
6928.000,7.18533,
6927.000,7.14661,
6926.000,7.10534,
6925.000,7.06375,
6924.000,7.02498,
6923.000,6.99181,
6922.000,6.96343,
6921.000,6.93557,
6920.000,6.9052,
6919.000,6.87331,
6918.000,6.8422,
6917.000,6.81202,
6916.000,6.78165,
6915.000,6.75154,
6914.000,6.72304,
6913.000,6.69505,
6912.000,6.66413,
6911.000,6.62861,
6910.000,6.59091,
6909.000,6.55448,
6908.000,6.51948,
6907.000,6.48306,
6906.000,6.44387,
6905.000,6.40428,
6904.000,6.36737,
6903.000,6.33345,
6902.000,6.30111,
6901.000,6.27009,
6900.000,6.24176,
6899.000,6.21696,
6898.000,6.19488,
6897.000,6.17347,
6896.000,6.15018,
6895.000,6.12281,
6894.000,6.09131,
6893.000,6.05795,
6892.000,6.02448,
6891.000,5.99013,
6890.000,5.95414,
6889.000,5.91914,
6888.000,5.889,
6887.000,5.86418,
6886.000,5.84233,
6885.000,5.82241,
6884.000,5.8046,
6883.000,5.78655,
6882.000,5.76416,
6881.000,5.73724,
6880.000,5.71045,
6879.000,5.68646,
6878.000,5.66181,
6877.000,5.63201,
6876.000,5.5974,
6875.000,5.56164,
6874.000,5.52735,
6873.000,5.49555,
6872.000,5.46708,
6871.000,5.44179,
6870.000,5.41818,
6869.000,5.39598,
6868.000,5.37656,
6867.000,5.35859,
6866.000,5.3364,
6865.000,5.306,
6864.000,5.27053,
6863.000,5.23648,
6862.000,5.20619,
6861.000,5.17766,
6860.000,5.15055,
6859.000,5.12705,
6858.000,5.10681,
6857.000,5.0859,
6856.000,5.06196,
6855.000,5.03701,
6854.000,5.01388,
6853.000,4.9919,
6852.000,4.96827,
6851.000,4.94232,
6850.000,4.91651,
6849.000,4.89372,
6848.000,4.87485,
6847.000,4.85847,
6846.000,4.84204,
6845.000,4.82308,
6844.000,4.79994,
6843.000,4.77232,
6842.000,4.74169,
6841.000,4.71092,
6840.000,4.68265,
6839.000,4.65794,
6838.000,4.63714,
6837.000,4.6206,
6836.000,4.60703,
6835.000,4.59212,
6834.000,4.57135,
6833.000,4.54461,
6832.000,4.51619,
6831.000,4.48978,
6830.000,4.46626,
6829.000,4.44631,
6828.000,4.43103,
6827.000,4.41873,
6826.000,4.40481,
6825.000,4.38693,
6824.000,4.36744,
6823.000,4.3482,
6822.000,4.32682,
6821.000,4.30178,
6820.000,4.27769,
6819.000,4.26012,
6818.000,4.24738,
6817.000,4.23319,
6816.000,4.21611,
6815.000,4.20024,
6814.000,4.18637,
6813.000,4.16864,
6812.000,4.14241,
6811.000,4.11116,
6810.000,4.08194,
6809.000,4.05717,
6808.000,4.03467,
6807.000,4.01353,
6806.000,3.9957,
6805.000,3.98239,
6804.000,3.97217,
6803.000,3.9629,
6802.000,3.95345,
6801.000,3.94297,
6800.000,3.93056,
6799.000,3.91649,
6798.000,3.90259,
6797.000,3.89015,
6796.000,3.878,
6795.000,3.86352,
6794.000,3.84509,
6793.000,3.82326,
6792.000,3.79985,
6791.000,3.77699,
6790.000,3.75683,
6789.000,3.74088,
6788.000,3.72846,
6787.000,3.71677,
6786.000,3.70336,
6785.000,3.68828,
6784.000,3.67284,
6783.000,3.6574,
6782.000,3.64221,
6781.000,3.6294,
6780.000,3.62154,
6779.000,3.61747,
6778.000,3.61193,
6777.000,3.60077,
6776.000,3.58475,
6775.000,3.56737,
6774.000,3.55084,
6773.000,3.53608,
6772.000,3.52469,
6771.000,3.51796,
6770.000,3.51444,
6769.000,3.51096,
6768.000,3.50605,
6767.000,3.50062,
6766.000,3.49542,
6765.000,3.48985,
6764.000,3.48374,
6763.000,3.4783,
6762.000,3.47399,
6761.000,3.46875,
6760.000,3.46026,
6759.000,3.44926,
6758.000,3.4389,
6757.000,3.43088,
6756.000,3.4233,
6755.000,3.4132,
6754.000,3.40037,
6753.000,3.38719,
6752.000,3.37498,
6751.000,3.3625,
6750.000,3.34903,
6749.000,3.3374,
6748.000,3.33171,
6747.000,3.33226,
6746.000,3.33511,
6745.000,3.3366,
6744.000,3.33613,
6743.000,3.33444,
6742.000,3.33141,
6741.000,3.32693,
6740.000,3.3223,
6739.000,3.31891,
6738.000,3.31636,
6737.000,3.31311,
6736.000,3.30853,
6735.000,3.30344,
6734.000,3.2987,
6733.000,3.29425,
6732.000,3.28932,
6731.000,3.28338,
6730.000,3.27732,
6729.000,3.27341,
6728.000,3.27347,
6727.000,3.27696,
6726.000,3.28183,
6725.000,3.28717,
6724.000,3.29346,
6723.000,3.30022,
6722.000,3.30554,
6721.000,3.3084,
6720.000,3.30968,
6719.000,3.30996,
6718.000,3.30852,
6717.000,3.30579,
6716.000,3.3044,
6715.000,3.30599,
6714.000,3.30898,
6713.000,3.31168,
6712.000,3.31619,
6711.000,3.32641,
6710.000,3.34276,
6709.000,3.361,
6708.000,3.37601,
6707.000,3.38522,
6706.000,3.3888,
6705.000,3.38892,
6704.000,3.38885,
6703.000,3.39064,
6702.000,3.39362,
6701.000,3.39627,
6700.000,3.39944,
6699.000,3.40564,
6698.000,3.41528,
6697.000,3.42557,
6696.000,3.4339,
6695.000,3.44114,
6694.000,3.45024,
6693.000,3.46234,
6692.000,3.47558,
6691.000,3.48726,
6690.000,3.49641,
6689.000,3.50422,
6688.000,3.51235,
6687.000,3.52129,
6686.000,3.53041,
6685.000,3.53913,
6684.000,3.54735,
6683.000,3.55513,
6682.000,3.563,
6681.000,3.57243,
6680.000,3.58483,
6679.000,3.59986,
6678.000,3.61581,
6677.000,3.63207,
6676.000,3.64976,
6675.000,3.66922,
6674.000,3.68821,
6673.000,3.70397,
6672.000,3.71619,
6671.000,3.72682,
6670.000,3.73759,
6669.000,3.74931,
6668.000,3.76273,
6667.000,3.77824,
6666.000,3.79485,
6665.000,3.81093,
6664.000,3.82625,
6663.000,3.842,
6662.000,3.85882,
6661.000,3.87579,
6660.000,3.89194,
6659.000,3.90827,
6658.000,3.92708,
6657.000,3.94924,
6656.000,3.97238,
6655.000,3.99258,
6654.000,4.00849,
6653.000,4.0234,
6652.000,4.04183,
6651.000,4.06443,
6650.000,4.0875,
6649.000,4.10794,
6648.000,4.12709,
6647.000,4.14855,
6646.000,4.17344,
6645.000,4.19936,
6644.000,4.22375,
6643.000,4.24697,
6642.000,4.27141,
6641.000,4.29822,
6640.000,4.32536,
6639.000,4.34955,
6638.000,4.37007,
6637.000,4.38973,
6636.000,4.4114,
6635.000,4.43484,
6634.000,4.45799,
6633.000,4.48002,
6632.000,4.5015,
6631.000,4.52275,
6630.000,4.54453,
6629.000,4.56947,
6628.000,4.59975,
6627.000,4.63315,
6626.000,4.66436,
6625.000,4.69086,
6624.000,4.71462,
6623.000,4.73775,
6622.000,4.75989,
6621.000,4.78137,
6620.000,4.8056,
6619.000,4.83574,
6618.000,4.87101,
6617.000,4.90808,
6616.000,4.94412,
6615.000,4.97719,
6614.000,5.00628,
6613.000,5.03344,
6612.000,5.06368,
6611.000,5.1003,
6610.000,5.14137,
6609.000,5.18247,
6608.000,5.22104,
6607.000,5.25678,
6606.000,5.28971,
6605.000,5.32024,
6604.000,5.34979,
6603.000,5.37944,
6602.000,5.40932,
6601.000,5.44079,
6600.000,5.47662,
6599.000,5.51698,
6598.000,5.55763,
6597.000,5.59513,
6596.000,5.63191,
6595.000,5.67272,
6594.000,5.7174,
6593.000,5.76092,
6592.000,5.80018,
6591.000,5.83732,
6590.000,5.87574,
6589.000,5.91568,
6588.000,5.95515,
6587.000,5.99342,
6586.000,6.03254,
6585.000,6.07565,
6584.000,6.12375,
6583.000,6.17413,
6582.000,6.22291,
6581.000,6.26917,
6580.000,6.3147,
6579.000,6.35934,
6578.000,6.39962,
6577.000,6.43423,
6576.000,6.46831,
6575.000,6.50895,
6574.000,6.55765,
6573.000,6.61034,
6572.000,6.66367,
6571.000,6.71794,
6570.000,6.77359,
6569.000,6.82834,
6568.000,6.87957,
6567.000,6.92775,
6566.000,6.97596,
6565.000,7.0264,
6564.000,7.07793,
6563.000,7.12734,
6562.000,7.17321,
6561.000,7.21794,
6560.000,7.26508,
6559.000,7.31499,
6558.000,7.3653,
6557.000,7.41574,
6556.000,7.46959,
6555.000,7.52888,
6554.000,7.59047,
6553.000,7.64953,
6552.000,7.70499,
6551.000,7.7595,
6550.000,7.81503,
6549.000,7.87116,
6548.000,7.92692,
6547.000,7.98206,
6546.000,8.03662,
6545.000,8.09095,
6544.000,8.1463,
6543.000,8.20396,
6542.000,8.26402,
6541.000,8.32568,
6540.000,8.38838,
6539.000,8.45204,
6538.000,8.51664,
6537.000,8.58178,
6536.000,8.64631,
6535.000,8.70874,
6534.000,8.76927,
6533.000,8.83088,
6532.000,8.89614,
6531.000,8.96323,
6530.000,9.02795,
6529.000,9.08979,
6528.000,9.15282,
6527.000,9.21934,
6526.000,9.28622,
6525.000,9.34919,
6524.000,9.40832,
6523.000,9.46684,
6522.000,9.52704,
6521.000,9.58941,
6520.000,9.65403,
6519.000,9.72044,
6518.000,9.7875,
6517.000,9.85453,
6516.000,9.92156,
6515.000,9.9879,
6514.000,10.0525,
6513.000,10.1164,
6512.000,10.1821,
6511.000,10.2497,
6510.000,10.3163,
6509.000,10.3803,
6508.000,10.4435,
6507.000,10.5079,
6506.000,10.573,
6505.000,10.6376,
6504.000,10.702,
6503.000,10.7657,
6502.000,10.8263,
6501.000,10.8834,
6500.000,10.9395,
6499.000,10.9967,
6498.000,11.0545,
6497.000,11.1129,
6496.000,11.1744,
6495.000,11.2405,
6494.000,11.3083,
6493.000,11.3727,
6492.000,11.4308,
6491.000,11.4829,
6490.000,11.5309,
6489.000,11.5771,
6488.000,11.6219,
6487.000,11.6643,
6486.000,11.7046,
6485.000,11.7476,
6484.000,11.7978,
6483.000,11.853,
6482.000,11.9055,
6481.000,11.9517,
6480.000,11.9952,
6479.000,12.0388,
6478.000,12.0807,
6477.000,12.1187,
6476.000,12.1544,
6475.000,12.1896,
6474.000,12.2235,
6473.000,12.256,
6472.000,12.2888,
6471.000,12.3218,
6470.000,12.3515,
6469.000,12.3768,
6468.000,12.4015,
6467.000,12.4271,
6466.000,12.4497,
6465.000,12.4654,
6464.000,12.4769,
6463.000,12.4888,
6462.000,12.5012,
6461.000,12.512,
6460.000,12.5221,
6459.000,12.5325,
6458.000,12.5415,
6457.000,12.5469,
6456.000,12.5503,
6455.000,12.5535,
6454.000,12.5549,
6453.000,12.5522,
6452.000,12.5466,
6451.000,12.5402,
6450.000,12.5323,
6449.000,12.5213,
6448.000,12.5084,
6447.000,12.4959,
6446.000,12.4834,
6445.000,12.469,
6444.000,12.4528,
6443.000,12.4354,
6442.000,12.4163,
6441.000,12.395,
6440.000,12.3717,
6439.000,12.3465,
6438.000,12.3183,
6437.000,12.2889,
6436.000,12.2618,
6435.000,12.2368,
6434.000,12.2094,
6433.000,12.1771,
6432.000,12.1437,
6431.000,12.1128,
6430.000,12.0817,
6429.000,12.0457,
6428.000,12.0055,
6427.000,11.9653,
6426.000,11.927,
6425.000,11.8885,
6424.000,11.848,
6423.000,11.8053,
6422.000,11.7614,
6421.000,11.7184,
6420.000,11.6779,
6419.000,11.638,
6418.000,11.5944,
6417.000,11.5469,
6416.000,11.5005,
6415.000,11.4582,
6414.000,11.4162,
6413.000,11.3696,
6412.000,11.3195,
6411.000,11.2703,
6410.000,11.2239,
6409.000,11.1791,
6408.000,11.1355,
6407.000,11.0921,
6406.000,11.0463,
6405.000,10.9961,
6404.000,10.9435,
6403.000,10.891,
6402.000,10.8383,
6401.000,10.7842,
6400.000,10.7303,
6399.000,10.679,
6398.000,10.6299,
6397.000,10.5808,
6396.000,10.5314,
6395.000,10.483,
6394.000,10.4352,
6393.000,10.3862,
6392.000,10.3354,
6391.000,10.2843,
6390.000,10.2334,
6389.000,10.1832,
6388.000,10.1342,
6387.000,10.0872,
6386.000,10.0415,
6385.000,9.99564,
6384.000,9.94869,
6383.000,9.8997,
6382.000,9.8486,
6381.000,9.7975,
6380.000,9.74921,
6379.000,9.70348,
6378.000,9.65677,
6377.000,9.60691,
6376.000,9.55541,
6375.000,9.50409,
6374.000,9.45249,
6373.000,9.40013,
6372.000,9.34848,
6371.000,9.29848,
6370.000,9.24861,
6369.000,9.19766,
6368.000,9.14708,
6367.000,9.09855,
6366.000,9.05141,
6365.000,9.00487,
6364.000,8.96027,
6363.000,8.91878,
6362.000,8.87851,
6361.000,8.83644,
6360.000,8.79172,
6359.000,8.74506,
6358.000,8.6966,
6357.000,8.64676,
6356.000,8.59763,
6355.000,8.55104,
6354.000,8.50645,
6353.000,8.46249,
6352.000,8.41938,
6351.000,8.37763,
6350.000,8.33591,
6349.000,8.29221,
6348.000,8.2463,
6347.000,8.19926,
6346.000,8.1515,
6345.000,8.10314,
6344.000,8.05534,
6343.000,8.00964,
6342.000,7.96662,
6341.000,7.92618,
6340.000,7.88803,
6339.000,7.85101,
6338.000,7.81313,
6337.000,7.7735,
6336.000,7.73292,
6335.000,7.69175,
6334.000,7.64887,
6333.000,7.60393,
6332.000,7.55881,
6331.000,7.51544,
6330.000,7.47406,
6329.000,7.43442,
6328.000,7.39679,
6327.000,7.36007,
6326.000,7.32106,
6325.000,7.27804,
6324.000,7.2334,
6323.000,7.19062,
6322.000,7.15009,
6321.000,7.11014,
6320.000,7.07105,
6319.000,7.03479,
6318.000,7.00113,
6317.000,6.96647,
6316.000,6.92769,
6315.000,6.88557,
6314.000,6.84339,
6313.000,6.80288,
6312.000,6.76276,
6311.000,6.72156,
6310.000,6.68092,
6309.000,6.6445,
6308.000,6.61297,
6307.000,6.58231,
6306.000,6.54849,
6305.000,6.51249,
6304.000,6.47799,
6303.000,6.44546,
6302.000,6.41174,
6301.000,6.3756,
6300.000,6.33965,
6299.000,6.3061,
6298.000,6.2737,
6297.000,6.2404,
6296.000,6.20583,
6295.000,6.16955,
6294.000,6.13002,
6293.000,6.08748,
6292.000,6.04572,
6291.000,6.00813,
6290.000,5.97415,
6289.000,5.94154,
6288.000,5.91043,
6287.000,5.88222,
6286.000,5.85574,
6285.000,5.82775,
6284.000,5.7968,
6283.000,5.7646,
6282.000,5.73304,
6281.000,5.70171,
6280.000,5.66849,
6279.000,5.63195,
6278.000,5.59301,
6277.000,5.5548,
6276.000,5.52046,
6275.000,5.49044,
6274.000,5.46248,
6273.000,5.43415,
6272.000,5.40473,
6271.000,5.37478,
6270.000,5.34539,
6269.000,5.31786,
6268.000,5.29264,
6267.000,5.26776,
6266.000,5.23999,
6265.000,5.2079,
6264.000,5.17282,
6263.000,5.13662,
6262.000,5.1005,
6261.000,5.06625,
6260.000,5.0361,
6259.000,5.01011,
6258.000,4.98513,
6257.000,4.95748,
6256.000,4.92559,
6255.000,4.8897,
6254.000,4.85114,
6253.000,4.81279,
6252.000,4.77778,
6251.000,4.74672,
6250.000,4.71802,
6249.000,4.69149,
6248.000,4.66931,
6247.000,4.65207,
6246.000,4.63637,
6245.000,4.61813,
6244.000,4.59608,
6243.000,4.5704,
6242.000,4.54037,
6241.000,4.50614,
6240.000,4.47089,
6239.000,4.43836,
6238.000,4.40942,
6237.000,4.38277,
6236.000,4.35778,
6235.000,4.33414,
6234.000,4.30994,
6233.000,4.28311,
6232.000,4.25441,
6231.000,4.22688,
6230.000,4.20242,
6229.000,4.1806,
6228.000,4.16024,
6227.000,4.14034,
6226.000,4.11999,
6225.000,4.09898,
6224.000,4.07779,
6223.000,4.05565,
6222.000,4.03005,
6221.000,3.99998,
6220.000,3.9687,
6219.000,3.94045,
6218.000,3.91534,
6217.000,3.88998,
6216.000,3.86286,
6215.000,3.83636,
6214.000,3.81303,
6213.000,3.79273,
6212.000,3.77376,
6211.000,3.75512,
6210.000,3.73648,
6209.000,3.71737,
6208.000,3.69729,
6207.000,3.6758,
6206.000,3.6524,
6205.000,3.62744,
6204.000,3.60285,
6203.000,3.58059,
6202.000,3.56025,
6201.000,3.53968,
6200.000,3.51785,
6199.000,3.49574,
6198.000,3.47407,
6197.000,3.45209,
6196.000,3.42891,
6195.000,3.4047,
6194.000,3.38009,
6193.000,3.35591,
6192.000,3.33397,
6191.000,3.31643,
6190.000,3.30338,
6189.000,3.29232,
6188.000,3.28058,
6187.000,3.26723,
6186.000,3.25209,
6185.000,3.23449,
6184.000,3.21428,
6183.000,3.19303,
6182.000,3.17282,
6181.000,3.15428,
6180.000,3.13646,
6179.000,3.11815,
6178.000,3.09838,
6177.000,3.07632,
6176.000,3.05174,
6175.000,3.02579,
6174.000,3.00068,
6173.000,2.97861,
6172.000,2.96089,
6171.000,2.94756,
6170.000,2.93731,
6169.000,2.92792,
6168.000,2.91718,
6167.000,2.90342,
6166.000,2.88562,
6165.000,2.86392,
6164.000,2.84045,
6163.000,2.81858,
6162.000,2.80051,
6161.000,2.78577,
6160.000,2.77247,
6159.000,2.75945,
6158.000,2.74685,
6157.000,2.73501,
6156.000,2.72368,
6155.000,2.71227,
6154.000,2.70046,
6153.000,2.68846,
6152.000,2.6764,
6151.000,2.66309,
6150.000,2.64626,
6149.000,2.6255,
6148.000,2.60472,
6147.000,2.5898,
6146.000,2.58274,
6145.000,2.57952,
6144.000,2.57451,
6143.000,2.56581,
6142.000,2.55463,
6141.000,2.54159,
6140.000,2.52649,
6139.000,2.51108,
6138.000,2.49907,
6137.000,2.49184,
6136.000,2.48636,
6135.000,2.47838,
6134.000,2.46674,
6133.000,2.45312,
6132.000,2.43936,
6131.000,2.42659,
6130.000,2.41605,
6129.000,2.40864,
6128.000,2.40348,
6127.000,2.39846,
6126.000,2.39241,
6125.000,2.386,
6124.000,2.38003,
6123.000,2.37379,
6122.000,2.3656,
6121.000,2.35459,
6120.000,2.34185,
6119.000,2.32998,
6118.000,2.32144,
6117.000,2.31682,
6116.000,2.31452,
6115.000,2.31232,
6114.000,2.30902,
6113.000,2.30444,
6112.000,2.29846,
6111.000,2.29098,
6110.000,2.2829,
6109.000,2.27614,
6108.000,2.27245,
6107.000,2.27203,
6106.000,2.27337,
6105.000,2.27409,
6104.000,2.27253,
6103.000,2.26889,
6102.000,2.26489,
6101.000,2.26186,
6100.000,2.2597,
6099.000,2.25793,
6098.000,2.257,
6097.000,2.25726,
6096.000,2.25727,
6095.000,2.25493,
6094.000,2.25039,
6093.000,2.24638,
6092.000,2.24503,
6091.000,2.24598,
6090.000,2.24807,
6089.000,2.25109,
6088.000,2.25489,
6087.000,2.25789,
6086.000,2.25857,
6085.000,2.25759,
6084.000,2.25711,
6083.000,2.25821,
6082.000,2.2601,
6081.000,2.26172,
6080.000,2.26309,
6079.000,2.26479,
6078.000,2.26692,
6077.000,2.26887,
6076.000,2.26976,
6075.000,2.2695,
6074.000,2.26951,
6073.000,2.27191,
6072.000,2.27718,
6071.000,2.28351,
6070.000,2.28903,
6069.000,2.29378,
6068.000,2.29848,
6067.000,2.30239,
6066.000,2.3043,
6065.000,2.30502,
6064.000,2.30713,
6063.000,2.31206,
6062.000,2.31897,
6061.000,2.32659,
6060.000,2.33464,
6059.000,2.34313,
6058.000,2.3515,
6057.000,2.35877,
6056.000,2.36406,
6055.000,2.36681,
6054.000,2.36783,
6053.000,2.36961,
6052.000,2.37452,
6051.000,2.38256,
6050.000,2.39217,
6049.000,2.4025,
6048.000,2.41337,
6047.000,2.42353,
6046.000,2.43135,
6045.000,2.43764,
6044.000,2.44551,
6043.000,2.45653,
6042.000,2.46895,
6041.000,2.48052,
6040.000,2.49103,
6039.000,2.50081,
6038.000,2.50904,
6037.000,2.5154,
6036.000,2.52168,
6035.000,2.52981,
6034.000,2.53954,
6033.000,2.54982,
6032.000,2.56116,
6031.000,2.57429,
6030.000,2.58741,
6029.000,2.59759,
6028.000,2.60472,
6027.000,2.61207,
6026.000,2.62238,
6025.000,2.63504,
6024.000,2.64793,
6023.000,2.6604,
6022.000,2.6737,
6021.000,2.68885,
6020.000,2.70514,
6019.000,2.72102,
6018.000,2.73624,
6017.000,2.75238,
6016.000,2.77057,
6015.000,2.78911,
6014.000,2.80496,
6013.000,2.81754,
6012.000,2.82941,
6011.000,2.84257,
6010.000,2.85625,
6009.000,2.86951,
6008.000,2.88387,
6007.000,2.90122,
6006.000,2.92033,
6005.000,2.93802,
6004.000,2.9531,
6003.000,2.96699,
6002.000,2.98106,
6001.000,2.99582,
6000.000,3.0125,
5999.000,3.03256,
5998.000,3.05492,
5997.000,3.07596,
5996.000,3.09341,
5995.000,3.10858,
5994.000,3.12426,
5993.000,3.14201,
5992.000,3.16236,
5991.000,3.18563,
5990.000,3.21109,
5989.000,3.23645,
5988.000,3.25959,
5987.000,3.2803,
5986.000,3.29951,
5985.000,3.31803,
5984.000,3.33677,
5983.000,3.35734,
5982.000,3.38076,
5981.000,3.40599,
5980.000,3.4307,
5979.000,3.45346,
5978.000,3.47452,
5977.000,3.49486,
5976.000,3.51553,
5975.000,3.53756,
5974.000,3.56141,
5973.000,3.58624,
5972.000,3.61044,
5971.000,3.63329,
5970.000,3.65573,
5969.000,3.67934,
5968.000,3.70501,
5967.000,3.73267,
5966.000,3.76195,
5965.000,3.79267,
5964.000,3.82448,
5963.000,3.85657,
5962.000,3.88796,
5961.000,3.9184,
5960.000,3.94867,
5959.000,3.97945,
5958.000,4.01012,
5957.000,4.03908,
5956.000,4.0659,
5955.000,4.09253,
5954.000,4.12163,
5953.000,4.15385,
5952.000,4.1874,
5951.000,4.22052,
5950.000,4.25323,
5949.000,4.28612,
5948.000,4.3184,
5947.000,4.34854,
5946.000,4.37666,
5945.000,4.40487,
5944.000,4.43483,
5943.000,4.4662,
5942.000,4.49824,
5941.000,4.53168,
5940.000,4.56799,
5939.000,4.60706,
5938.000,4.64693,
5937.000,4.68565,
5936.000,4.72274,
5935.000,4.75898,
5934.000,4.79566,
5933.000,4.83399,
5932.000,4.8743,
5931.000,4.91577,
5930.000,4.9572,
5929.000,4.99803,
5928.000,5.03843,
5927.000,5.07891,
5926.000,5.12037,
5925.000,5.16372,
5924.000,5.2085,
5923.000,5.25249,
5922.000,5.29389,
5921.000,5.33364,
5920.000,5.37443,
5919.000,5.41806,
5918.000,5.46444,
5917.000,5.51272,
5916.000,5.56189,
5915.000,5.61051,
5914.000,5.65728,
5913.000,5.7022,
5912.000,5.74622,
5911.000,5.79004,
5910.000,5.83421,
5909.000,5.87986,
5908.000,5.92784,
5907.000,5.9776,
5906.000,6.02816,
5905.000,6.07983,
5904.000,6.13329,
5903.000,6.18745,
5902.000,6.2403,
5901.000,6.29185,
5900.000,6.34443,
5899.000,6.39956,
5898.000,6.45633,
5897.000,6.51294,
5896.000,6.56842,
5895.000,6.62253,
5894.000,6.67573,
5893.000,6.72945,
5892.000,6.78505,
5891.000,6.84224,
5890.000,6.89976,
5889.000,6.95721,
5888.000,7.01463,
5887.000,7.07088,
5886.000,7.12481,
5885.000,7.17795,
5884.000,7.23332,
5883.000,7.29132,
5882.000,7.34939,
5881.000,7.40606,
5880.000,7.46269,
5879.000,7.52044,
5878.000,7.57833,
5877.000,7.63562,
5876.000,7.6938,
5875.000,7.75451,
5874.000,7.81731,
5873.000,7.88086,
5872.000,7.94474,
5871.000,8.00896,
5870.000,8.07293,
5869.000,8.13611,
5868.000,8.19843,
5867.000,8.25962,
5866.000,8.31951,
5865.000,8.37909,
5864.000,8.43952,
5863.000,8.5,
5862.000,8.55868,
5861.000,8.61601,
5860.000,8.67466,
5859.000,8.73562,
5858.000,8.79689,
5857.000,8.85719,
5856.000,8.91805,
5855.000,8.98097,
5854.000,9.04468,
5853.000,9.10681,
5852.000,9.16661,
5851.000,9.22446,
5850.000,9.28044,
5849.000,9.3347,
5848.000,9.38765,
5847.000,9.43942,
5846.000,9.49028,
5845.000,9.54194,
5844.000,9.59613,
5843.000,9.65174,
5842.000,9.70559,
5841.000,9.75656,
5840.000,9.80605,
5839.000,9.85408,
5838.000,9.89864,
5837.000,9.94003,
5836.000,9.98239,
5835.000,10.0285,
5834.000,10.0758,
5833.000,10.1198,
5832.000,10.1592,
5831.000,10.1949,
5830.000,10.2272,
5829.000,10.2565,
5828.000,10.2846,
5827.000,10.3133,
5826.000,10.3421,
5825.000,10.3695,
5824.000,10.3958,
5823.000,10.4215,
5822.000,10.4459,
5821.000,10.4677,
5820.000,10.4867,
5819.000,10.5034,
5818.000,10.5175,
5817.000,10.5285,
5816.000,10.5375,
5815.000,10.5458,
5814.000,10.5541,
5813.000,10.5625,
5812.000,10.5702,
5811.000,10.5756,
5810.000,10.5766,
5809.000,10.5736,
5808.000,10.5689,
5807.000,10.5636,
5806.000,10.557,
5805.000,10.5489,
5804.000,10.5405,
5803.000,10.5317,
5802.000,10.5195,
5801.000,10.5019,
5800.000,10.4805,
5799.000,10.4585,
5798.000,10.4369,
5797.000,10.4151,
5796.000,10.393,
5795.000,10.3715,
5794.000,10.3512,
5793.000,10.3316,
5792.000,10.3108,
5791.000,10.287,
5790.000,10.2596,
5789.000,10.2299,
5788.000,10.1986,
5787.000,10.1654,
5786.000,10.1299,
5785.000,10.094,
5784.000,10.0595,
5783.000,10.0248,
5782.000,9.98657,
5781.000,9.94492,
5780.000,9.90338,
5779.000,9.86368,
5778.000,9.82343,
5777.000,9.78025,
5776.000,9.73508,
5775.000,9.68987,
5774.000,9.64444,
5773.000,9.59777,
5772.000,9.55055,
5771.000,9.50445,
5770.000,9.45994,
5769.000,9.41652,
5768.000,9.37389,
5767.000,9.33165,
5766.000,9.28858,
5765.000,9.24361,
5764.000,9.19696,
5763.000,9.14928,
5762.000,9.1006,
5761.000,9.05102,
5760.000,9.00154,
5759.000,8.95326,
5758.000,8.90599,
5757.000,8.85851,
5756.000,8.80982,
5755.000,8.75988,
5754.000,8.70948,
5753.000,8.65967,
5752.000,8.61079,
5751.000,8.56211,
5750.000,8.51286,
5749.000,8.4633,
5748.000,8.41406,
5747.000,8.36511,
5746.000,8.31639,
5745.000,8.26902,
5744.000,8.22416,
5743.000,8.18084,
5742.000,8.1367,
5741.000,8.09074,
5740.000,8.04412,
5739.000,7.99811,
5738.000,7.95288,
5737.000,7.9083,
5736.000,7.86426,
5735.000,7.81984,
5734.000,7.77352,
5733.000,7.72509,
5732.000,7.6761,
5731.000,7.62828,
5730.000,7.5822,
5729.000,7.5378,
5728.000,7.49487,
5727.000,7.45283,
5726.000,7.41114,
5725.000,7.36984,
5724.000,7.32896,
5723.000,7.28741,
5722.000,7.24391,
5721.000,7.19897,
5720.000,7.15452,
5719.000,7.11146,
5718.000,7.06893,
5717.000,7.0262,
5716.000,6.98383,
5715.000,6.94219,
5714.000,6.90065,
5713.000,6.85902,
5712.000,6.81868,
5711.000,6.78108,
5710.000,6.74575,
5709.000,6.71053,
5708.000,6.67315,
5707.000,6.63236,
5706.000,6.58828,
5705.000,6.54235,
5704.000,6.49683,
5703.000,6.45353,
5702.000,6.41322,
5701.000,6.37571,
5700.000,6.34002,
5699.000,6.30432,
5698.000,6.26668,
5697.000,6.22663,
5696.000,6.18565,
5695.000,6.14606,
5694.000,6.10958,
5693.000,6.07619,
5692.000,6.04412,
5691.000,6.01071,
5690.000,5.97431,
5689.000,5.93549,
5688.000,5.89625,
5687.000,5.85824,
5686.000,5.82209,
5685.000,5.78769,
5684.000,5.75434,
5683.000,5.72071,
5682.000,5.68548,
5681.000,5.64851,
5680.000,5.61096,
5679.000,5.57432,
5678.000,5.53933,
5677.000,5.50566,
5676.000,5.47249,
5675.000,5.43942,
5674.000,5.40656,
5673.000,5.37346,
5672.000,5.3385,
5671.000,5.30064,
5670.000,5.26156,
5669.000,5.22458,
5668.000,5.19119,
5667.000,5.15998,
5666.000,5.12917,
5665.000,5.09821,
5664.000,5.06621,
5663.000,5.03121,
5662.000,4.99287,
5661.000,4.95412,
5660.000,4.91839,
5659.000,4.8859,
5658.000,4.85456,
5657.000,4.82329,
5656.000,4.79231,
5655.000,4.76105,
5654.000,4.72842,
5653.000,4.69483,
5652.000,4.66208,
5651.000,4.63079,
5650.000,4.59991,
5649.000,4.5688,
5648.000,4.53827,
5647.000,4.50904,
5646.000,4.4805,
5645.000,4.45135,
5644.000,4.42083,
5643.000,4.38904,
5642.000,4.35679,
5641.000,4.3253,
5640.000,4.29547,
5639.000,4.26748,
5638.000,4.24122,
5637.000,4.21636,
5636.000,4.19138,
5635.000,4.16388,
5634.000,4.1329,
5633.000,4.10025,
5632.000,4.06851,
5631.000,4.03847,
5630.000,4.00987,
5629.000,3.98327,
5628.000,3.95919,
5627.000,3.93613,
5626.000,3.91164,
5625.000,3.88513,
5624.000,3.85796,
5623.000,3.83078,
5622.000,3.80299,
5621.000,3.77469,
5620.000,3.74714,
5619.000,3.72074,
5618.000,3.69446,
5617.000,3.66774,
5616.000,3.64141,
5615.000,3.61619,
5614.000,3.59168,
5613.000,3.56756,
5612.000,3.54427,
5611.000,3.52178,
5610.000,3.49882,
5609.000,3.47433,
5608.000,3.44896,
5607.000,3.42419,
5606.000,3.40075,
5605.000,3.37837,
5604.000,3.35643,
5603.000,3.33419,
5602.000,3.31085,
5601.000,3.28622,
5600.000,3.26104,
5599.000,3.23652,
5598.000,3.21347,
5597.000,3.19175,
5596.000,3.17001,
5595.000,3.14653,
5594.000,3.12086,
5593.000,3.09452,
5592.000,3.06941,
5591.000,3.04597,
5590.000,3.02363,
5589.000,3.00229,
5588.000,2.98202,
5587.000,2.96169,
5586.000,2.93972,
5585.000,2.91618,
5584.000,2.89277,
5583.000,2.87036,
5582.000,2.84817,
5581.000,2.82557,
5580.000,2.80338,
5579.000,2.78251,
5578.000,2.76273,
5577.000,2.74348,
5576.000,2.72484,
5575.000,2.70663,
5574.000,2.68763,
5573.000,2.66682,
5572.000,2.64479,
5571.000,2.62296,
5570.000,2.60221,
5569.000,2.58277,
5568.000,2.56483,
5567.000,2.54813,
5566.000,2.53151,
5565.000,2.51364,
5564.000,2.49434,
5563.000,2.47437,
5562.000,2.45425,
5561.000,2.43395,
5560.000,2.41343,
5559.000,2.39293,
5558.000,2.37251,
5557.000,2.35214,
5556.000,2.33228,
5555.000,2.31415,
5554.000,2.29876,
5553.000,2.28571,
5552.000,2.27302,
5551.000,2.25847,
5550.000,2.24127,
5549.000,2.22233,
5548.000,2.20313,
5547.000,2.18478,
5546.000,2.16798,
5545.000,2.15322,
5544.000,2.14008,
5543.000,2.12712,
5542.000,2.11306,
5541.000,2.09798,
5540.000,2.08266,
5539.000,2.06733,
5538.000,2.05171,
5537.000,2.03614,
5536.000,2.02136,
5535.000,2.00741,
5534.000,1.99365,
5533.000,1.97992,
5532.000,1.96651,
5531.000,1.9531,
5530.000,1.93898,
5529.000,1.92452,
5528.000,1.91125,
5527.000,1.89986,
5526.000,1.88909,
5525.000,1.87744,
5524.000,1.86486,
5523.000,1.85209,
5522.000,1.83931,
5521.000,1.82658,
5520.000,1.81479,
5519.000,1.80494,
5518.000,1.79663,
5517.000,1.78837,
5516.000,1.77928,
5515.000,1.76966,
5514.000,1.76004,
5513.000,1.75065,
5512.000,1.74188,
5511.000,1.73433,
5510.000,1.72772,
5509.000,1.7204,
5508.000,1.71065,
5507.000,1.6985,
5506.000,1.6859,
5505.000,1.67496,
5504.000,1.66619,
5503.000,1.65872,
5502.000,1.6517,
5501.000,1.64498,
5500.000,1.63856,
5499.000,1.63207,
5498.000,1.62535,
5497.000,1.61879,
5496.000,1.61238,
5495.000,1.60494,
5494.000,1.59536,
5493.000,1.58464,
5492.000,1.57557,
5491.000,1.56998,
5490.000,1.56684,
5489.000,1.56357,
5488.000,1.5584,
5487.000,1.55148,
5486.000,1.54419,
5485.000,1.53808,
5484.000,1.53396,
5483.000,1.53139,
5482.000,1.52915,
5481.000,1.52633,
5480.000,1.52287,
5479.000,1.519,
5478.000,1.51491,
5477.000,1.51092,
5476.000,1.50757,
5475.000,1.50472,
5474.000,1.5015,
5473.000,1.49761,
5472.000,1.49424,
5471.000,1.49306,
5470.000,1.49431,
5469.000,1.49636,
5468.000,1.49705,
5467.000,1.49494,
5466.000,1.48993,
5465.000,1.48324,
5464.000,1.47706,
5463.000,1.47337,
5462.000,1.47311,
5461.000,1.47597,
5460.000,1.48064,
5459.000,1.48508,
5458.000,1.48735,
5457.000,1.48692,
5456.000,1.48505,
5455.000,1.48335,
5454.000,1.48228,
5453.000,1.48138,
5452.000,1.48035,
5451.000,1.47912,
5450.000,1.47738,
5449.000,1.4751,
5448.000,1.47342,
5447.000,1.47391,
5446.000,1.47674,
5445.000,1.48049,
5444.000,1.48369,
5443.000,1.48586,
5442.000,1.48704,
5441.000,1.48736,
5440.000,1.48747,
5439.000,1.48855,
5438.000,1.49104,
5437.000,1.4941,
5436.000,1.4968,
5435.000,1.49957,
5434.000,1.50351,
5433.000,1.50829,
5432.000,1.51193,
5431.000,1.51283,
5430.000,1.5116,
5429.000,1.51032,
5428.000,1.51061,
5427.000,1.5128,
5426.000,1.51673,
5425.000,1.52216,
5424.000,1.52813,
5423.000,1.53307,
5422.000,1.53612,
5421.000,1.53799,
5420.000,1.53999,
5419.000,1.54253,
5418.000,1.54537,
5417.000,1.54877,
5416.000,1.55347,
5415.000,1.55979,
5414.000,1.5675,
5413.000,1.57661,
5412.000,1.58711,
5411.000,1.59779,
5410.000,1.60629,
5409.000,1.61091,
5408.000,1.61175,
5407.000,1.6102,
5406.000,1.60804,
5405.000,1.60746,
5404.000,1.61038,
5403.000,1.61707,
5402.000,1.62557,
5401.000,1.63377,
5400.000,1.64154,
5399.000,1.65013,
5398.000,1.66019,
5397.000,1.67104,
5396.000,1.68163,
5395.000,1.69123,
5394.000,1.69943,
5393.000,1.70639,
5392.000,1.71284,
5391.000,1.7196,
5390.000,1.72693,
5389.000,1.73471,
5388.000,1.7429,
5387.000,1.75164,
5386.000,1.76096,
5385.000,1.77074,
5384.000,1.78068,
5383.000,1.79017,
5382.000,1.79879,
5381.000,1.80718,
5380.000,1.81663,
5379.000,1.82747,
5378.000,1.83833,
5377.000,1.84805,
5376.000,1.8574,
5375.000,1.86809,
5374.000,1.88027,
5373.000,1.89242,
5372.000,1.90346,
5371.000,1.91387,
5370.000,1.92447,
5369.000,1.93514,
5368.000,1.9456,
5367.000,1.95649,
5366.000,1.96877,
5365.000,1.9823,
5364.000,1.99596,
5363.000,2.00911,
5362.000,2.0223,
5361.000,2.03616,
5360.000,2.05034,
5359.000,2.06403,
5358.000,2.07716,
5357.000,2.09058,
5356.000,2.10476,
5355.000,2.11908,
5354.000,2.13283,
5353.000,2.14631,
5352.000,2.16033,
5351.000,2.17497,
5350.000,2.18997,
5349.000,2.20595,
5348.000,2.22407,
5347.000,2.24411,
5346.000,2.26391,
5345.000,2.28137,
5344.000,2.29633,
5343.000,2.31039,
5342.000,2.32528,
5341.000,2.34225,
5340.000,2.36189,
5339.000,2.38362,
5338.000,2.40562,
5337.000,2.42607,
5336.000,2.44428,
5335.000,2.46068,
5334.000,2.47619,
5333.000,2.49198,
5332.000,2.50907,
5331.000,2.52753,
5330.000,2.54668,
5329.000,2.56631,
5328.000,2.58688,
5327.000,2.60863,
5326.000,2.63107,
5325.000,2.65365,
5324.000,2.67621,
5323.000,2.6987,
5322.000,2.72093,
5321.000,2.74267,
5320.000,2.76375,
5319.000,2.78403,
5318.000,2.80386,
5317.000,2.82434,
5316.000,2.84653,
5315.000,2.87018,
5314.000,2.89414,
5313.000,2.918,
5312.000,2.94269,
5311.000,2.9693,
5310.000,2.99787,
5309.000,3.02761,
5308.000,3.05745,
5307.000,3.08607,
5306.000,3.11224,
5305.000,3.13603,
5304.000,3.15932,
5303.000,3.1845,
5302.000,3.21264,
5301.000,3.24319,
5300.000,3.27464,
5299.000,3.30524,
5298.000,3.33393,
5297.000,3.36121,
5296.000,3.38863,
5295.000,3.41721,
5294.000,3.44689,
5293.000,3.47762,
5292.000,3.50988,
5291.000,3.54366,
5290.000,3.57794,
5289.000,3.61196,
5288.000,3.64621,
5287.000,3.6814,
5286.000,3.71726,
5285.000,3.75307,
5284.000,3.78853,
5283.000,3.82341,
5282.000,3.85709,
5281.000,3.88952,
5280.000,3.92208,
5279.000,3.95657,
5278.000,3.99352,
5277.000,4.0323,
5276.000,4.07227,
5275.000,4.11309,
5274.000,4.15427,
5273.000,4.19516,
5272.000,4.23533,
5271.000,4.27441,
5270.000,4.31225,
5269.000,4.34977,
5268.000,4.38903,
5267.000,4.43146,
5266.000,4.47638,
5265.000,4.52212,
5264.000,4.56784,
5263.000,4.61354,
5262.000,4.65896,
5261.000,4.70389,
5260.000,4.74891,
5259.000,4.79478,
5258.000,4.84096,
5257.000,4.8861,
5256.000,4.93002,
5255.000,4.97452,
5254.000,5.02191,
5253.000,5.07292,
5252.000,5.12633,
5251.000,5.18003,
5250.000,5.23228,
5249.000,5.28266,
5248.000,5.33213,
5247.000,5.38188,
5246.000,5.43211,
5245.000,5.48242,
5244.000,5.53293,
5243.000,5.58407,
5242.000,5.6355,
5241.000,5.68656,
5240.000,5.73774,
5239.000,5.79037,
5238.000,5.84462,
5237.000,5.89905,
5236.000,5.95261,
5235.000,6.0062,
5234.000,6.06151,
5233.000,6.119,
5232.000,6.17761,
5231.000,6.23593,
5230.000,6.29297,
5229.000,6.34866,
5228.000,6.40419,
5227.000,6.46151,
5226.000,6.52205,
5225.000,6.58578,
5224.000,6.65128,
5223.000,6.7165,
5222.000,6.77973,
5221.000,6.84047,
5220.000,6.89939,
5219.000,6.95729,
5218.000,7.01442,
5217.000,7.07116,
5216.000,7.1284,
5215.000,7.18681,
5214.000,7.24622,
5213.000,7.30624,
5212.000,7.36687,
5211.000,7.4283,
5210.000,7.49082,
5209.000,7.55468,
5208.000,7.61934,
5207.000,7.6831,
5206.000,7.74432,
5205.000,7.80292,
5204.000,7.85984,
5203.000,7.91562,
5202.000,7.97032,
5201.000,8.02401,
5200.000,8.07646,
5199.000,8.12712,
5198.000,8.1762,
5197.000,8.22558,
5196.000,8.27713,
5195.000,8.33022,
5194.000,8.38205,
5193.000,8.43082,
5192.000,8.47715,
5191.000,8.52243,
5190.000,8.56703,
5189.000,8.61063,
5188.000,8.65285,
5187.000,8.69305,
5186.000,8.73054,
5185.000,8.76544,
5184.000,8.7987,
5183.000,8.83093,
5182.000,8.86191,
5181.000,8.89142,
5180.000,8.91954,
5179.000,8.94601,
5178.000,8.97016,
5177.000,8.99177,
5176.000,9.0112,
5175.000,9.02841,
5174.000,9.04284,
5173.000,9.05425,
5172.000,9.06306,
5171.000,9.06972,
5170.000,9.07466,
5169.000,9.07876,
5168.000,9.08277,
5167.000,9.08594,
5166.000,9.08654,
5165.000,9.08377,
5164.000,9.07832,
5163.000,9.07096,
5162.000,9.06171,
5161.000,9.0506,
5160.000,9.03801,
5159.000,9.02386,
5158.000,9.00733,
5157.000,8.98785,
5156.000,8.96581,
5155.000,8.94204,
5154.000,8.91712,
5153.000,8.89145,
5152.000,8.8653,
5151.000,8.83857,
5150.000,8.81073,
5149.000,8.78129,
5148.000,8.74982,
5147.000,8.71604,
5146.000,8.68035,
5145.000,8.644,
5144.000,8.60795,
5143.000,8.57192,
5142.000,8.5349,
5141.000,8.49627,
5140.000,8.45585,
5139.000,8.41362,
5138.000,8.37037,
5137.000,8.32801,
5136.000,8.2878,
5135.000,8.24865,
5134.000,8.20815,
5133.000,8.16496,
5132.000,8.11936,
5131.000,8.07224,
5130.000,8.02467,
5129.000,7.97796,
5128.000,7.93254,
5127.000,7.88734,
5126.000,7.84127,
5125.000,7.79505,
5124.000,7.75007,
5123.000,7.70611,
5122.000,7.66153,
5121.000,7.61544,
5120.000,7.56836,
5119.000,7.52106,
5118.000,7.474,
5117.000,7.42785,
5116.000,7.38289,
5115.000,7.33789,
5114.000,7.29118,
5113.000,7.24261,
5112.000,7.19371,
5111.000,7.14584,
5110.000,7.09944,
5109.000,7.05465,
5108.000,7.01105,
5107.000,6.96695,
5106.000,6.92048,
5105.000,6.87167,
5104.000,6.82241,
5103.000,6.77444,
5102.000,6.72824,
5101.000,6.68367,
5100.000,6.64021,
5099.000,6.59651,
5098.000,6.55127,
5097.000,6.50484,
5096.000,6.45883,
5095.000,6.41417,
5094.000,6.37053,
5093.000,6.32757,
5092.000,6.28559,
5091.000,6.24448,
5090.000,6.20322,
5089.000,6.1608,
5088.000,6.11682,
5087.000,6.07131,
5086.000,6.02492,
5085.000,5.97929,
5084.000,5.93615,
5083.000,5.89564,
5082.000,5.85645,
5081.000,5.81731,
5080.000,5.77783,
5079.000,5.73805,
5078.000,5.69817,
5077.000,5.65874,
5076.000,5.62,
5075.000,5.58114,
5074.000,5.54115,
5073.000,5.50031,
5072.000,5.46,
5071.000,5.42096,
5070.000,5.38276,
5069.000,5.34475,
5068.000,5.30663,
5067.000,5.2683,
5066.000,5.23018,
5065.000,5.1933,
5064.000,5.15809,
5063.000,5.1233,
5062.000,5.08707,
5061.000,5.04911,
5060.000,5.01079,
5059.000,4.97349,
5058.000,4.9377,
5057.000,4.9033,
5056.000,4.8694,
5055.000,4.83417,
5054.000,4.79645,
5053.000,4.75762,
5052.000,4.72053,
5051.000,4.6865,
5050.000,4.65432,
5049.000,4.62206,
5048.000,4.58873,
5047.000,4.554,
5046.000,4.51801,
5045.000,4.48179,
5044.000,4.4467,
5043.000,4.41292,
5042.000,4.37959,
5041.000,4.34648,
5040.000,4.31447,
5039.000,4.28387,
5038.000,4.25356,
5037.000,4.22224,
5036.000,4.1897,
5035.000,4.15662,
5034.000,4.1238,
5033.000,4.09201,
5032.000,4.06163,
5031.000,4.032,
5030.000,4.00183,
5029.000,3.97071,
5028.000,3.93945,
5027.000,3.90891,
5026.000,3.8792,
5025.000,3.85003,
5024.000,3.82107,
5023.000,3.79173,
5022.000,3.76154,
5021.000,3.73092,
5020.000,3.70084,
5019.000,3.67147,
5018.000,3.64195,
5017.000,3.61172,
5016.000,3.58113,
5015.000,3.55083,
5014.000,3.5213,
5013.000,3.4931,
5012.000,3.46661,
5011.000,3.44114,
5010.000,3.41514,
5009.000,3.38782,
5008.000,3.35977,
5007.000,3.33189,
5006.000,3.3045,
5005.000,3.27769,
5004.000,3.2513,
5003.000,3.22447,
5002.000,3.19603,
5001.000,3.1661,
5000.000,3.13641,
4999.000,3.10856,
4998.000,3.08249,
4997.000,3.05714,
4996.000,3.03177,
4995.000,3.00624,
4994.000,2.98048,
4993.000,2.95455,
4992.000,2.92881,
4991.000,2.90351,
4990.000,2.87861,
4989.000,2.8542,
4988.000,2.83073,
4987.000,2.80841,
4986.000,2.78667,
4985.000,2.76455,
4984.000,2.74134,
4983.000,2.71695,
4982.000,2.69195,
4981.000,2.6674,
4980.000,2.64409,
4979.000,2.62186,
4978.000,2.59997,
4977.000,2.57793,
4976.000,2.55565,
4975.000,2.53285,
4974.000,2.50936,
4973.000,2.4857,
4972.000,2.4627,
4971.000,2.4405,
4970.000,2.41866,
4969.000,2.3973,
4968.000,2.37691,
4967.000,2.35688,
4966.000,2.33557,
4965.000,2.31226,
4964.000,2.28825,
4963.000,2.26545,
4962.000,2.24462,
4961.000,2.22542,
4960.000,2.20701,
4959.000,2.18815,
4958.000,2.16757,
4957.000,2.14535,
4956.000,2.12331,
4955.000,2.10323,
4954.000,2.08504,
4953.000,2.06742,
4952.000,2.04951,
4951.000,2.03127,
4950.000,2.01273,
4949.000,1.99372,
4948.000,1.97439,
4947.000,1.95518,
4946.000,1.93621,
4945.000,1.91732,
4944.000,1.89859,
4943.000,1.88039,
4942.000,1.86295,
4941.000,1.84605,
4940.000,1.82935,
4939.000,1.81253,
4938.000,1.79533,
4937.000,1.7776,
4936.000,1.75949,
4935.000,1.74138,
4934.000,1.72371,
4933.000,1.70681,
4932.000,1.6908,
4931.000,1.67533,
4930.000,1.65984,
4929.000,1.64404,
4928.000,1.62808,
4927.000,1.61213,
4926.000,1.59621,
4925.000,1.58041,
4924.000,1.5649,
4923.000,1.5496,
4922.000,1.53412,
4921.000,1.51841,
4920.000,1.50276,
4919.000,1.48739,
4918.000,1.47228,
4917.000,1.45765,
4916.000,1.44406,
4915.000,1.43179,
4914.000,1.42068,
4913.000,1.41055,
4912.000,1.40126,
4911.000,1.3921,
4910.000,1.38182,
4909.000,1.36978,
4908.000,1.35664,
4907.000,1.34358,
4906.000,1.33127,
4905.000,1.3197,
4904.000,1.30861,
4903.000,1.29754,
4902.000,1.28613,
4901.000,1.27478,
4900.000,1.26461,
4899.000,1.25614,
4898.000,1.24835,
4897.000,1.23951,
4896.000,1.22872,
4895.000,1.21647,
4894.000,1.20396,
4893.000,1.19255,
4892.000,1.18327,
4891.000,1.17628,
4890.000,1.1706,
4889.000,1.16475,
4888.000,1.15768,
4887.000,1.14916,
4886.000,1.13978,
4885.000,1.13092,
4884.000,1.124,
4883.000,1.11919,
4882.000,1.11505,
4881.000,1.10982,
4880.000,1.10304,
4879.000,1.09559,
4878.000,1.08862,
4877.000,1.08266,
4876.000,1.07751,
4875.000,1.07244,
4874.000,1.0666,
4873.000,1.05988,
4872.000,1.05297,
4871.000,1.04643,
4870.000,1.04012,
4869.000,1.03379,
4868.000,1.02796,
4867.000,1.02341,
4866.000,1.02002,
4865.000,1.01675,
4864.000,1.01257,
4863.000,1.00717,
4862.000,1.00088,
4861.000,0.994509,
4860.000,0.988997,
4859.000,0.984602,
4858.000,0.980643,
4857.000,0.97643,
4856.000,0.972275,
4855.000,0.969093,
4854.000,0.967153,
4853.000,0.965739,
4852.000,0.964012,
4851.000,0.961714,
4850.000,0.959039,
4849.000,0.956321,
4848.000,0.953792,
4847.000,0.951197,
4846.000,0.947762,
4845.000,0.94308,
4844.000,0.938064,
4843.000,0.934508,
4842.000,0.933563,
4841.000,0.934781,
4840.000,0.936534,
4839.000,0.936982,
4838.000,0.934942,
4837.000,0.930598,
4836.000,0.925527,
4835.000,0.921637,
4834.000,0.919735,
4833.000,0.919203,
4832.000,0.91884,
4831.000,0.917738,
4830.000,0.915631,
4829.000,0.91297,
4828.000,0.910695,
4827.000,0.909443,
4826.000,0.908874,
4825.000,0.908064,
4824.000,0.906591,
4823.000,0.904807,
4822.000,0.903152,
4821.000,0.901737,
4820.000,0.900638,
4819.000,0.900118,
4818.000,0.90035,
4817.000,0.901217,
4816.000,0.902465,
4815.000,0.903704,
4814.000,0.904251,
4813.000,0.903471,
4812.000,0.901519,
4811.000,0.899417,
4810.000,0.89814,
4809.000,0.897853,
4808.000,0.898113,
4807.000,0.898532,
4806.000,0.899033,
4805.000,0.899689,
4804.000,0.900553,
4803.000,0.901535,
4802.000,0.902365,
4801.000,0.902828,
4800.000,0.903122,
4799.000,0.903812,
4798.000,0.905308,
4797.000,0.907499,
4796.000,0.909961,
4795.000,0.912299,
4794.000,0.914217,
4793.000,0.915472,
4792.000,0.915995,
4791.000,0.916098,
4790.000,0.916422,
4789.000,0.917584,
4788.000,0.919754,
4787.000,0.922536,
4786.000,0.925267,
4785.000,0.927484,
4784.000,0.929111,
4783.000,0.930253,
4782.000,0.930993,
4781.000,0.931554,
4780.000,0.932475,
4779.000,0.934409,
4778.000,0.937637,
4777.000,0.941789,
4776.000,0.946007,
4775.000,0.949469,
4774.000,0.951953,
4773.000,0.953995,
4772.000,0.956317,
4771.000,0.959071,
4770.000,0.9618,
4769.000,0.964203,
4768.000,0.966683,
4767.000,0.970002,
4766.000,0.974585,
4765.000,0.980225,
4764.000,0.986231,
4763.000,0.991658,
4762.000,0.995749,
4761.000,0.998554,
4760.000,1.00105,
4759.000,1.00444,
4758.000,1.00918,
4757.000,1.0147,
4756.000,1.01985,
4755.000,1.02379,
4754.000,1.02664,
4753.000,1.0295,
4752.000,1.03359,
4751.000,1.03912,
4750.000,1.04526,
4749.000,1.0513,
4748.000,1.05728,
4747.000,1.06357,
4746.000,1.06996,
4745.000,1.07574,
4744.000,1.08041,
4743.000,1.08411,
4742.000,1.08755,
4741.000,1.09175,
4740.000,1.09741,
4739.000,1.1044,
4738.000,1.11194,
4737.000,1.11953,
4736.000,1.12727,
4735.000,1.13521,
4734.000,1.14282,
4733.000,1.14958,
4732.000,1.15566,
4731.000,1.16144,
4730.000,1.16695,
4729.000,1.17215,
4728.000,1.17767,
4727.000,1.18453,
4726.000,1.19314,
4725.000,1.20309,
4724.000,1.21355,
4723.000,1.22369,
4722.000,1.23284,
4721.000,1.24092,
4720.000,1.24872,
4719.000,1.2572,
4718.000,1.26655,
4717.000,1.27631,
4716.000,1.28635,
4715.000,1.29706,
4714.000,1.30858,
4713.000,1.32044,
4712.000,1.33195,
4711.000,1.34271,
4710.000,1.35262,
4709.000,1.36186,
4708.000,1.37099,
4707.000,1.38055,
4706.000,1.39048,
4705.000,1.40027,
4704.000,1.4098,
4703.000,1.41977,
4702.000,1.43102,
4701.000,1.44369,
4700.000,1.45722,
4699.000,1.47081,
4698.000,1.48397,
4697.000,1.49673,
4696.000,1.50944,
4695.000,1.52246,
4694.000,1.53583,
4693.000,1.54945,
4692.000,1.56348,
4691.000,1.57825,
4690.000,1.5936,
4689.000,1.60855,
4688.000,1.622,
4687.000,1.63382,
4686.000,1.64526,
4685.000,1.65827,
4684.000,1.67402,
4683.000,1.69187,
4682.000,1.70981,
4681.000,1.726,
4680.000,1.74013,
4679.000,1.75339,
4678.000,1.76728,
4677.000,1.78254,
4676.000,1.79876,
4675.000,1.81492,
4674.000,1.8304,
4673.000,1.84569,
4672.000,1.86222,
4671.000,1.88098,
4670.000,1.90156,
4669.000,1.92226,
4668.000,1.94133,
4667.000,1.95812,
4666.000,1.97341,
4665.000,1.9889,
4664.000,2.00613,
4663.000,2.02554,
4662.000,2.04656,
4661.000,2.06838,
4660.000,2.09055,
4659.000,2.11273,
4658.000,2.13441,
4657.000,2.15521,
4656.000,2.17539,
4655.000,2.19581,
4654.000,2.21747,
4653.000,2.24094,
4652.000,2.26603,
4651.000,2.29184,
4650.000,2.31735,
4649.000,2.34225,
4648.000,2.36702,
4647.000,2.39224,
4646.000,2.41794,
4645.000,2.44377,
4644.000,2.4695,
4643.000,2.49511,
4642.000,2.52067,
4641.000,2.54641,
4640.000,2.57264,
4639.000,2.59961,
4638.000,2.62739,
4637.000,2.65604,
4636.000,2.68555,
4635.000,2.71547,
4634.000,2.74505,
4633.000,2.77403,
4632.000,2.80296,
4631.000,2.8327,
4630.000,2.86366,
4629.000,2.89574,
4628.000,2.92862,
4627.000,2.96194,
4626.000,2.99534,
4625.000,3.0287,
4624.000,3.06216,
4623.000,3.09574,
4622.000,3.12918,
4621.000,3.16236,
4620.000,3.19552,
4619.000,3.22902,
4618.000,3.26321,
4617.000,3.29853,
4616.000,3.33548,
4615.000,3.37418,
4614.000,3.41405,
4613.000,3.45422,
4612.000,3.49403,
4611.000,3.53318,
4610.000,3.5718,
4609.000,3.61057,
4608.000,3.65051,
4607.000,3.69208,
4606.000,3.73488,
4605.000,3.77812,
4604.000,3.82129,
4603.000,3.86416,
4602.000,3.90671,
4601.000,3.94914,
4600.000,3.9918,
4599.000,4.03493,
4598.000,4.07861,
4597.000,4.123,
4596.000,4.16837,
4595.000,4.21479,
4594.000,4.26216,
4593.000,4.31061,
4592.000,4.36043,
4591.000,4.41152,
4590.000,4.46319,
4589.000,4.51476,
4588.000,4.56599,
4587.000,4.61688,
4586.000,4.6675,
4585.000,4.71813,
4584.000,4.76915,
4583.000,4.82067,
4582.000,4.87268,
4581.000,4.92543,
4580.000,4.97932,
4579.000,5.03414,
4578.000,5.08911,
4577.000,5.14371,
4576.000,5.19805,
4575.000,5.25228,
4574.000,5.30632,
4573.000,5.36025,
4572.000,5.41445,
4571.000,5.46911,
4570.000,5.524,
4569.000,5.57909,
4568.000,5.63473,
4567.000,5.69094,
4566.000,5.74709,
4565.000,5.80263,
4564.000,5.85767,
4563.000,5.91248,
4562.000,5.96688,
4561.000,6.0205,
4560.000,6.07322,
4559.000,6.12502,
4558.000,6.1758,
4557.000,6.22577,
4556.000,6.27567,
4555.000,6.32613,
4554.000,6.37702,
4553.000,6.42755,
4552.000,6.4769,
4551.000,6.52446,
4550.000,6.56993,
4549.000,6.61354,
4548.000,6.65578,
4547.000,6.69689,
4546.000,6.73663,
4545.000,6.77471,
4544.000,6.81119,
4543.000,6.84627,
4542.000,6.87999,
4541.000,6.91226,
4540.000,6.94293,
4539.000,6.97173,
4538.000,6.99839,
4537.000,7.02284,
4536.000,7.04522,
4535.000,7.06565,
4534.000,7.08431,
4533.000,7.10148,
4532.000,7.11724,
4531.000,7.13112,
4530.000,7.14233,
4529.000,7.15043,
4528.000,7.15551,
4527.000,7.158,
4526.000,7.15858,
4525.000,7.15784,
4524.000,7.1558,
4523.000,7.15165,
4522.000,7.14447,
4521.000,7.13413,
4520.000,7.12123,
4519.000,7.10659,
4518.000,7.09096,
4517.000,7.07497,
4516.000,7.05859,
4515.000,7.04084,
4514.000,7.02054,
4513.000,6.99749,
4512.000,6.97245,
4511.000,6.94623,
4510.000,6.9191,
4509.000,6.891,
4508.000,6.86173,
4507.000,6.83097,
4506.000,6.79863,
4505.000,6.76498,
4504.000,6.73033,
4503.000,6.69461,
4502.000,6.6577,
4501.000,6.61996,
4500.000,6.58182,
4499.000,6.54318,
4498.000,6.5037,
4497.000,6.46354,
4496.000,6.42328,
4495.000,6.38324,
4494.000,6.34337,
4493.000,6.30352,
4492.000,6.26339,
4491.000,6.22234,
4490.000,6.17989,
4489.000,6.13648,
4488.000,6.09311,
4487.000,6.05035,
4486.000,6.00796,
4485.000,5.96547,
4484.000,5.92253,
4483.000,5.87889,
4482.000,5.83453,
4481.000,5.79002,
4480.000,5.74617,
4479.000,5.7034,
4478.000,5.66157,
4477.000,5.62033,
4476.000,5.57933,
4475.000,5.53802,
4474.000,5.49587,
4473.000,5.4527,
4472.000,5.4087,
4471.000,5.36411,
4470.000,5.31933,
4469.000,5.27526,
4468.000,5.23287,
4467.000,5.19226,
4466.000,5.15255,
4465.000,5.11264,
4464.000,5.07203,
4463.000,5.03087,
4462.000,4.98966,
4461.000,4.94897,
4460.000,4.90905,
4459.000,4.86955,
4458.000,4.82982,
4457.000,4.78962,
4456.000,4.74927,
4455.000,4.70939,
4454.000,4.67052,
4453.000,4.63283,
4452.000,4.5959,
4451.000,4.55873,
4450.000,4.52048,
4449.000,4.48136,
4448.000,4.44238,
4447.000,4.40438,
4446.000,4.36738,
4445.000,4.33075,
4444.000,4.29387,
4443.000,4.25648,
4442.000,4.21887,
4441.000,4.1818,
4440.000,4.14585,
4439.000,4.11101,
4438.000,4.07669,
4437.000,4.04225,
4436.000,4.00732,
4435.000,3.97178,
4434.000,3.93579,
4433.000,3.89979,
4432.000,3.86418,
4431.000,3.82906,
4430.000,3.79435,
4429.000,3.76015,
4428.000,3.72668,
4427.000,3.69383,
4426.000,3.66104,
4425.000,3.62777,
4424.000,3.59387,
4423.000,3.55959,
4422.000,3.5254,
4421.000,3.49173,
4420.000,3.45871,
4419.000,3.42614,
4418.000,3.39389,
4417.000,3.36215,
4416.000,3.33116,
4415.000,3.30074,
4414.000,3.27038,
4413.000,3.23974,
4412.000,3.20889,
4411.000,3.17804,
4410.000,3.14733,
4409.000,3.11687,
4408.000,3.08683,
4407.000,3.05731,
4406.000,3.02836,
4405.000,2.99985,
4404.000,2.97146,
4403.000,2.94277,
4402.000,2.91371,
4401.000,2.8847,
4400.000,2.8562,
4399.000,2.8281,
4398.000,2.7999,
4397.000,2.77138,
4396.000,2.74293,
4395.000,2.71506,
4394.000,2.68793,
4393.000,2.66131,
4392.000,2.63482,
4391.000,2.60817,
4390.000,2.58133,
4389.000,2.55461,
4388.000,2.52829,
4387.000,2.50228,
4386.000,2.47631,
4385.000,2.45035,
4384.000,2.42483,
4383.000,2.40017,
4382.000,2.37643,
4381.000,2.35326,
4380.000,2.32996,
4379.000,2.30588,
4378.000,2.28091,
4377.000,2.2559,
4376.000,2.23218,
4375.000,2.21047,
4374.000,2.19032,
4373.000,2.17058,
4372.000,2.15031,
4371.000,2.12928,
4370.000,2.10796,
4369.000,2.08706,
4368.000,2.06702,
4367.000,2.04766,
4366.000,2.02847,
4365.000,2.00917,
4364.000,1.98995,
4363.000,1.9709,
4362.000,1.95174,
4361.000,1.93213,
4360.000,1.91223,
4359.000,1.89258,
4358.000,1.87357,
4357.000,1.855,
4356.000,1.83625,
4355.000,1.81677,
4354.000,1.79673,
4353.000,1.77711,
4352.000,1.75901,
4351.000,1.74254,
4350.000,1.72659,
4349.000,1.70992,
4348.000,1.69222,
4347.000,1.67417,
4346.000,1.65649,
4345.000,1.63927,
4344.000,1.62217,
4343.000,1.60494,
4342.000,1.58771,
4341.000,1.57092,
4340.000,1.55486,
4339.000,1.53924,
4338.000,1.5234,
4337.000,1.50679,
4336.000,1.48956,
4335.000,1.4723,
4334.000,1.45553,
4333.000,1.43934,
4332.000,1.42346,
4331.000,1.40748,
4330.000,1.3911,
4329.000,1.37426,
4328.000,1.35716,
4327.000,1.34008,
4326.000,1.32332,
4325.000,1.30708,
4324.000,1.29154,
4323.000,1.27655,
4322.000,1.26166,
4321.000,1.24641,
4320.000,1.23084,
4319.000,1.21546,
4318.000,1.20076,
4317.000,1.18688,
4316.000,1.17368,
4315.000,1.16091,
4314.000,1.1483,
4313.000,1.13555,
4312.000,1.12248,
4311.000,1.10918,
4310.000,1.09609,
4309.000,1.08372,
4308.000,1.07226,
4307.000,1.06135,
4306.000,1.05023,
4305.000,1.03822,
4304.000,1.02524,
4303.000,1.01194,
4302.000,0.999279,
4301.000,0.988017,
4300.000,0.978235,
4299.000,0.969274,
4298.000,0.960088,
4297.000,0.949874,
4296.000,0.938549,
4295.000,0.926755,
4294.000,0.915399,
4293.000,0.905098,
4292.000,0.895827,
4291.000,0.886965,
4290.000,0.87777,
4289.000,0.867993,
4288.000,0.858104,
4287.000,0.848895,
4286.000,0.840765,
4285.000,0.833422,
4284.000,0.826259,
4283.000,0.818999,
4282.000,0.811953,
4281.000,0.805633,
4280.000,0.800088,
4279.000,0.794616,
4278.000,0.788194,
4277.000,0.780353,
4276.000,0.771643,
4275.000,0.763261,
4274.000,0.75611,
4273.000,0.750184,
4272.000,0.744774,
4271.000,0.73921,
4270.000,0.73344,
4269.000,0.727909,
4268.000,0.722966,
4267.000,0.718451,
4266.000,0.713905,
4265.000,0.709099,
4264.000,0.7042,
4263.000,0.699441,
4262.000,0.694776,
4261.000,0.689955,
4260.000,0.684827,
4259.000,0.67943,
4258.000,0.673861,
4257.000,0.668165,
4256.000,0.662392,
4255.000,0.656773,
4254.000,0.65177,
4253.000,0.647858,
4252.000,0.645078,
4251.000,0.642816,
4250.000,0.640213,
4249.000,0.636916,
4248.000,0.63337,
4247.000,0.630257,
4246.000,0.627764,
4245.000,0.625457,
4244.000,0.622717,
4243.000,0.619132,
4242.000,0.614586,
4241.000,0.609314,
4240.000,0.604032,
4239.000,0.599678,
4238.000,0.596744,
4237.000,0.594747,
4236.000,0.592578,
4235.000,0.589485,
4234.000,0.585768,
4233.000,0.582401,
4232.000,0.579972,
4231.000,0.578145,
4230.000,0.576165,
4229.000,0.573685,
4228.000,0.570951,
4227.000,0.568268,
4226.000,0.565607,
4225.000,0.562849,
4224.000,0.560163,
4223.000,0.557928,
4222.000,0.556317,
4221.000,0.555076,
4220.000,0.553672,
4219.000,0.551673,
4218.000,0.549116,
4217.000,0.546613,
4216.000,0.544954,
4215.000,0.544384,
4214.000,0.544317,
4213.000,0.543876,
4212.000,0.542723,
4211.000,0.541225,
4210.000,0.539858,
4209.000,0.538671,
4208.000,0.537363,
4207.000,0.535738,
4206.000,0.533874,
4205.000,0.531912,
4204.000,0.529882,
4203.000,0.527868,
4202.000,0.526219,
4201.000,0.525377,
4200.000,0.525347,
4199.000,0.525482,
4198.000,0.524978,
4197.000,0.523594,
4196.000,0.521758,
4195.000,0.520005,
4194.000,0.518529,
4193.000,0.517323,
4192.000,0.516447,
4191.000,0.515964,
4190.000,0.515719,
4189.000,0.515491,
4188.000,0.51529,
4187.000,0.515305,
4186.000,0.515515,
4185.000,0.515572,
4184.000,0.515198,
4183.000,0.514565,
4182.000,0.514148,
4181.000,0.51414,
4180.000,0.514127,
4179.000,0.51341,
4178.000,0.511775,
4177.000,0.509887,
4176.000,0.508848,
4175.000,0.509238,
4174.000,0.510556,
4173.000,0.511608,
4172.000,0.511455,
4171.000,0.51008,
4170.000,0.508325,
4169.000,0.507217,
4168.000,0.507208,
4167.000,0.507914,
4166.000,0.508553,
4165.000,0.508633,
4164.000,0.508246,
4163.000,0.507814,
4162.000,0.507696,
4161.000,0.508053,
4160.000,0.508864,
4159.000,0.509885,
4158.000,0.510702,
4157.000,0.511047,
4156.000,0.511103,
4155.000,0.51136,
4154.000,0.512133,
4153.000,0.513302,
4152.000,0.51453,
4151.000,0.515626,
4150.000,0.516602,
4149.000,0.517454,
4148.000,0.518031,
4147.000,0.518262,
4146.000,0.518404,
4145.000,0.518933,
4144.000,0.520048,
4143.000,0.52143,
4142.000,0.522674,
4141.000,0.523849,
4140.000,0.525368,
4139.000,0.527246,
4138.000,0.528853,
4137.000,0.529597,
4136.000,0.529715,
4135.000,0.530071,
4134.000,0.531222,
4133.000,0.532931,
4132.000,0.534601,
4131.000,0.535961,
4130.000,0.537193,
4129.000,0.538615,
4128.000,0.540382,
4127.000,0.542477,
4126.000,0.544813,
4125.000,0.547257,
4124.000,0.549618,
4123.000,0.551724,
4122.000,0.553576,
4121.000,0.555367,
4120.000,0.5573,
4119.000,0.559394,
4118.000,0.56153,
4117.000,0.563661,
4116.000,0.565875,
4115.000,0.568227,
4114.000,0.570619,
4113.000,0.572917,
4112.000,0.575101,
4111.000,0.577264,
4110.000,0.579545,
4109.000,0.582122,
4108.000,0.585175,
4107.000,0.588717,
4106.000,0.592479,
4105.000,0.596069,
4104.000,0.599297,
4103.000,0.602323,
4102.000,0.605462,
4101.000,0.608807,
4100.000,0.612026,
4099.000,0.614544,
4098.000,0.616104,
4097.000,0.617214,
4096.000,0.61895,
4095.000,0.622129,
4094.000,0.626653,
4093.000,0.631691,
4092.000,0.636456,
4091.000,0.640719,
4090.000,0.64462,
4089.000,0.648253,
4088.000,0.651572,
4087.000,0.654719,
4086.000,0.658207,
4085.000,0.662624,
4084.000,0.668123,
4083.000,0.674237,
4082.000,0.680281,
4081.000,0.6859,
4080.000,0.691217,
4079.000,0.696508,
4078.000,0.701888,
4077.000,0.707336,
4076.000,0.712824,
4075.000,0.718339,
4074.000,0.723831,
4073.000,0.729264,
4072.000,0.734737,
4071.000,0.740427,
4070.000,0.746365,
4069.000,0.752295,
4068.000,0.757846,
4067.000,0.762919,
4066.000,0.76796,
4065.000,0.77374,
4064.000,0.780759,
4063.000,0.788769,
4062.000,0.796978,
4061.000,0.804732,
4060.000,0.811991,
4059.000,0.819112,
4058.000,0.826353,
4057.000,0.833726,
4056.000,0.841192,
4055.000,0.848778,
4054.000,0.856411,
4053.000,0.863802,
4052.000,0.87072,
4051.000,0.877375,
4050.000,0.884418,
4049.000,0.892478,
4048.000,0.901687,
4047.000,0.911689,
4046.000,0.922036,
4045.000,0.932497,
4044.000,0.943005,
4043.000,0.953479,
4042.000,0.963832,
4041.000,0.974115,
4040.000,0.984504,
4039.000,0.995056,
4038.000,1.00559,
4037.000,1.01589,
4036.000,1.026,
4035.000,1.03625,
4034.000,1.04705,
4033.000,1.05852,
4032.000,1.07037,
4031.000,1.08207,
4030.000,1.09321,
4029.000,1.10398,
4028.000,1.11503,
4027.000,1.12697,
4026.000,1.1398,
4025.000,1.15296,
4024.000,1.16593,
4023.000,1.17865,
4022.000,1.1915,
4021.000,1.20483,
4020.000,1.21877,
4019.000,1.23315,
4018.000,1.24762,
4017.000,1.26188,
4016.000,1.27596,
4015.000,1.29016,
4014.000,1.3047,
4013.000,1.31946,
4012.000,1.33416,
4011.000,1.34884,
4010.000,1.36388,
4009.000,1.3796,
4008.000,1.39583,
4007.000,1.41227,
4006.000,1.42902,
4005.000,1.44647,
4004.000,1.46468,
4003.000,1.48307,
4002.000,1.501,
4001.000,1.51856,
4000.000,1.53646,
3999.000,1.55532,
3998.000,1.57511,
3997.000,1.59529,
3996.000,1.61539,
3995.000,1.63527,
3994.000,1.65506,
3993.000,1.67505,
3992.000,1.69553,
3991.000,1.71667,
3990.000,1.73842,
3989.000,1.76051,
3988.000,1.78277,
3987.000,1.80531,
3986.000,1.82847,
3985.000,1.85244,
3984.000,1.87695,
3983.000,1.90138,
3982.000,1.92535,
3981.000,1.94911,
3980.000,1.97331,
3979.000,1.9983,
3978.000,2.02374,
3977.000,2.04907,
3976.000,2.07421,
3975.000,2.09964,
3974.000,2.12578,
3973.000,2.15258,
3972.000,2.17968,
3971.000,2.20692,
3970.000,2.23434,
3969.000,2.26198,
3968.000,2.28979,
3967.000,2.31796,
3966.000,2.34693,
3965.000,2.377,
3964.000,2.40793,
3963.000,2.4392,
3962.000,2.47043,
3961.000,2.50153,
3960.000,2.53254,
3959.000,2.56341,
3958.000,2.59412,
3957.000,2.62507,
3956.000,2.65696,
3955.000,2.69027,
3954.000,2.72474,
3953.000,2.75952,
3952.000,2.79397,
3951.000,2.82819,
3950.000,2.86269,
3949.000,2.89784,
3948.000,2.93372,
3947.000,2.97043,
3946.000,3.00815,
3945.000,3.04674,
3944.000,3.08565,
3943.000,3.12428,
3942.000,3.16259,
3941.000,3.20115,
3940.000,3.24069,
3939.000,3.2815,
3938.000,3.32338,
3937.000,3.36603,
3936.000,3.40954,
3935.000,3.45432,
3934.000,3.50044,
3933.000,3.54724,
3932.000,3.5937,
3931.000,3.63926,
3930.000,3.6842,
3929.000,3.72921,
3928.000,3.77479,
3927.000,3.82107,
3926.000,3.86777,
3925.000,3.91438,
3924.000,3.96062,
3923.000,4.007,
3922.000,4.05424,
3921.000,4.10235,
3920.000,4.1506,
3919.000,4.1985,
3918.000,4.24614,
3917.000,4.29349,
3916.000,4.34003,
3915.000,4.38527,
3914.000,4.42935,
3913.000,4.47276,
3912.000,4.51579,
3911.000,4.55846,
3910.000,4.60082,
3909.000,4.64307,
3908.000,4.68544,
3907.000,4.72801,
3906.000,4.77039,
3905.000,4.81167,
3904.000,4.85081,
3903.000,4.88727,
3902.000,4.92125,
3901.000,4.95314,
3900.000,4.98272,
3899.000,5.00932,
3898.000,5.03279,
3897.000,5.05397,
3896.000,5.07397,
3895.000,5.0934,
3894.000,5.11226,
3893.000,5.12979,
3892.000,5.14464,
3891.000,5.15552,
3890.000,5.16243,
3889.000,5.16703,
3888.000,5.17115,
3887.000,5.17467,
3886.000,5.17582,
3885.000,5.1737,
3884.000,5.16963,
3883.000,5.16542,
3882.000,5.16101,
3881.000,5.15453,
3880.000,5.14457,
3879.000,5.13172,
3878.000,5.11736,
3877.000,5.10204,
3876.000,5.08523,
3875.000,5.06635,
3874.000,5.04565,
3873.000,5.02389,
3872.000,5.00141,
3871.000,4.97774,
3870.000,4.95216,
3869.000,4.92488,
3868.000,4.89698,
3867.000,4.86891,
3866.000,4.83972,
3865.000,4.80856,
3864.000,4.77639,
3863.000,4.74494,
3862.000,4.71419,
3861.000,4.68261,
3860.000,4.6497,
3859.000,4.61644,
3858.000,4.58363,
3857.000,4.55061,
3856.000,4.51579,
3855.000,4.47794,
3854.000,4.43752,
3853.000,4.39662,
3852.000,4.35683,
3851.000,4.31844,
3850.000,4.28255,
3849.000,4.25045,
3848.000,4.22087,
3847.000,4.1915,
3846.000,4.16129,
3845.000,4.13006,
3844.000,4.09777,
3843.000,4.06451,
3842.000,4.03025,
3841.000,3.99484,
3840.000,3.9582,
3839.000,3.92038,
3838.000,3.88185,
3837.000,3.84343,
3836.000,3.80583,
3835.000,3.7693,
3834.000,3.73393,
3833.000,3.69964,
3832.000,3.66622,
3831.000,3.63351,
3830.000,3.60121,
3829.000,3.56876,
3828.000,3.53579,
3827.000,3.5025,
3826.000,3.46923,
3825.000,3.43587,
3824.000,3.40178,
3823.000,3.36622,
3822.000,3.32917,
3821.000,3.29195,
3820.000,3.25621,
3819.000,3.22211,
3818.000,3.18898,
3817.000,3.15669,
3816.000,3.12579,
3815.000,3.09689,
3814.000,3.06958,
3813.000,3.04243,
3812.000,3.01448,
3811.000,2.98555,
3810.000,2.95536,
3809.000,2.92361,
3808.000,2.89094,
3807.000,2.85929,
3806.000,2.83007,
3805.000,2.80238,
3804.000,2.77401,
3803.000,2.74372,
3802.000,2.71202,
3801.000,2.68089,
3800.000,2.65179,
3799.000,2.62422,
3798.000,2.59712,
3797.000,2.57048,
3796.000,2.54467,
3795.000,2.51935,
3794.000,2.49362,
3793.000,2.46705,
3792.000,2.44044,
3791.000,2.41487,
3790.000,2.39021,
3789.000,2.36523,
3788.000,2.33924,
3787.000,2.31297,
3786.000,2.28753,
3785.000,2.26311,
3784.000,2.23895,
3783.000,2.21421,
3782.000,2.18881,
3781.000,2.16342,
3780.000,2.13896,
3779.000,2.11598,
3778.000,2.09403,
3777.000,2.07197,
3776.000,2.04894,
3775.000,2.02489,
3774.000,2.00009,
3773.000,1.97483,
3772.000,1.94971,
3771.000,1.92566,
3770.000,1.90333,
3769.000,1.88242,
3768.000,1.86182,
3767.000,1.84076,
3766.000,1.81962,
3765.000,1.79918,
3764.000,1.77945,
3763.000,1.75948,
3762.000,1.7382,
3761.000,1.71558,
3760.000,1.6927,
3759.000,1.67098,
3758.000,1.65107,
3757.000,1.63243,
3756.000,1.61373,
3755.000,1.59345,
3754.000,1.57069,
3753.000,1.54623,
3752.000,1.52269,
3751.000,1.50279,
3750.000,1.4866,
3749.000,1.47131,
3748.000,1.45412,
3747.000,1.43452,
3746.000,1.41388,
3745.000,1.39444,
3744.000,1.37846,
3743.000,1.3657,
3742.000,1.35284,
3741.000,1.33703,
3740.000,1.31802,
3739.000,1.29681,
3738.000,1.27457,
3737.000,1.25255,
3736.000,1.23248,
3735.000,1.21567,
3734.000,1.20158,
3733.000,1.18819,
3732.000,1.17378,
3731.000,1.15789,
3730.000,1.14071,
3729.000,1.12252,
3728.000,1.10389,
3727.000,1.08583,
3726.000,1.06922,
3725.000,1.05406,
3724.000,1.03963,
3723.000,1.02522,
3722.000,1.01053,
3721.000,0.995479,
3720.000,0.980041,
3719.000,0.96436,
3718.000,0.948783,
3717.000,0.933557,
3716.000,0.91856,
3715.000,0.903438,
3714.000,0.888074,
3713.000,0.87305,
3712.000,0.859372,
3711.000,0.847317,
3710.000,0.835875,
3709.000,0.823853,
3708.000,0.811125,
3707.000,0.798266,
3706.000,0.785539,
3705.000,0.772839,
3704.000,0.760239,
3703.000,0.747992,
3702.000,0.736185,
3701.000,0.724672,
3700.000,0.713299,
3699.000,0.701864,
3698.000,0.689997,
3697.000,0.677563,
3696.000,0.665196,
3695.000,0.654013,
3694.000,0.644493,
3693.000,0.635924,
3692.000,0.627019,
3691.000,0.616984,
3690.000,0.606164,
3689.000,0.595953,
3688.000,0.58771,
3687.000,0.581347,
3686.000,0.575413,
3685.000,0.568693,
3684.000,0.561131,
3683.000,0.553296,
3682.000,0.545557,
3681.000,0.537945,
3680.000,0.530594,
3679.000,0.523802,
3678.000,0.51753,
3677.000,0.511268,
3676.000,0.50456,
3675.000,0.4975,
3674.000,0.490548,
3673.000,0.484123,
3672.000,0.478531,
3671.000,0.473782,
3670.000,0.469371,
3669.000,0.46465,
3668.000,0.45946,
3667.000,0.454214,
3666.000,0.449443,
3665.000,0.44535,
3664.000,0.441756,
3663.000,0.438282,
3662.000,0.434595,
3661.000,0.430632,
3660.000,0.426614,
3659.000,0.422693,
3658.000,0.418713,
3657.000,0.4145,
3656.000,0.410224,
3655.000,0.406108,
3654.000,0.401929,
3653.000,0.397296,
3652.000,0.392375,
3651.000,0.387984,
3650.000,0.384859,
3649.000,0.382837,
3648.000,0.381026,
3647.000,0.378799,
3646.000,0.376252,
3645.000,0.373765,
3644.000,0.37148,
3643.000,0.369303,
3642.000,0.367162,
3641.000,0.365128,
3640.000,0.363298,
3639.000,0.361547,
3638.000,0.359514,
3637.000,0.356977,
3636.000,0.354158,
3635.000,0.351478,
3634.000,0.349097,
3633.000,0.346858,
3632.000,0.344632,
3631.000,0.342498,
3630.000,0.340548,
3629.000,0.338667,
3628.000,0.336606,
3627.000,0.334257,
3626.000,0.331769,
3625.000,0.329315,
3624.000,0.326872,
3623.000,0.324344,
3622.000,0.321875,
3621.000,0.319941,
3620.000,0.318958,
3619.000,0.31867,
3618.000,0.31817,
3617.000,0.316792,
3616.000,0.314822,
3615.000,0.313054,
3614.000,0.311869,
3613.000,0.310925,
3612.000,0.309561,
3611.000,0.307459,
3610.000,0.304972,
3609.000,0.302911,
3608.000,0.301875,
3607.000,0.301709,
3606.000,0.301697,
3605.000,0.301313,
3604.000,0.300539,
3603.000,0.299543,
3602.000,0.298425,
3601.000,0.297391,
3600.000,0.29681,
3599.000,0.296799,
3598.000,0.296897,
3597.000,0.296468,
3596.000,0.295314,
3595.000,0.293694,
3594.000,0.291858,
3593.000,0.289859,
3592.000,0.287769,
3591.000,0.285813,
3590.000,0.28423,
3589.000,0.283187,
3588.000,0.282786,
3587.000,0.282933,
3586.000,0.28321,
3585.000,0.283062,
3584.000,0.282203,
3583.000,0.280826,
3582.000,0.279463,
3581.000,0.278611,
3580.000,0.27835,
3579.000,0.278235,
3578.000,0.277625,
3577.000,0.276239,
3576.000,0.274397,
3575.000,0.272629,
3574.000,0.27112,
3573.000,0.269654,
3572.000,0.268062,
3571.000,0.266574,
3570.000,0.265659,
3569.000,0.265554,
3568.000,0.265977,
3567.000,0.266338,
3566.000,0.266263,
3565.000,0.265814,
3564.000,0.265173,
3563.000,0.264365,
3562.000,0.263487,
3561.000,0.262921,
3560.000,0.263008,
3559.000,0.263587,
3558.000,0.264084,
3557.000,0.264031,
3556.000,0.26333,
3555.000,0.262144,
3554.000,0.260843,
3553.000,0.260021,
3552.000,0.26014,
3551.000,0.260996,
3550.000,0.261812,
3549.000,0.261972,
3548.000,0.261424,
3547.000,0.260387,
3546.000,0.259074,
3545.000,0.257861,
3544.000,0.257333,
3543.000,0.257782,
3542.000,0.258853,
3541.000,0.259904,
3540.000,0.260577,
3539.000,0.26086,
3538.000,0.260889,
3537.000,0.260911,
3536.000,0.26121,
3535.000,0.261748,
3534.000,0.262019,
3533.000,0.261526,
3532.000,0.260389,
3531.000,0.259273,
3530.000,0.258714,
3529.000,0.258659,
3528.000,0.258631,
3527.000,0.258238,
3526.000,0.257573,
3525.000,0.257218,
3524.000,0.257777,
3523.000,0.259272,
3522.000,0.260981,
3521.000,0.261939,
3520.000,0.261609,
3519.000,0.260156,
3518.000,0.258287,
3517.000,0.256847,
3516.000,0.256321,
3515.000,0.256564,
3514.000,0.257072,
3513.000,0.257575,
3512.000,0.258241,
3511.000,0.259288,
3510.000,0.260566,
3509.000,0.261625,
3508.000,0.262067,
3507.000,0.261817,
3506.000,0.261236,
3505.000,0.261042,
3504.000,0.261879,
3503.000,0.263758,
3502.000,0.265981,
3501.000,0.267685,
3500.000,0.268382,
3499.000,0.268083,
3498.000,0.267242,
3497.000,0.266639,
3496.000,0.266946,
3495.000,0.268172,
3494.000,0.269705,
3493.000,0.271017,
3492.000,0.272075,
3491.000,0.272988,
3490.000,0.2736,
3489.000,0.273714,
3488.000,0.273519,
3487.000,0.273525,
3486.000,0.274124,
3485.000,0.275334,
3484.000,0.276835,
3483.000,0.27817,
3482.000,0.279069,
3481.000,0.279706,
3480.000,0.280465,
3479.000,0.281384,
3478.000,0.282104,
3477.000,0.282492,
3476.000,0.282983,
3475.000,0.284086,
3474.000,0.285779,
3473.000,0.287616,
3472.000,0.289252,
3471.000,0.2906,
3470.000,0.291662,
3469.000,0.292554,
3468.000,0.293564,
3467.000,0.294891,
3466.000,0.296387,
3465.000,0.297774,
3464.000,0.299055,
3463.000,0.300458,
3462.000,0.302048,
3461.000,0.30363,
3460.000,0.305033,
3459.000,0.306288,
3458.000,0.307545,
3457.000,0.308986,
3456.000,0.310806,
3455.000,0.31308,
3454.000,0.315621,
3453.000,0.318101,
3452.000,0.320288,
3451.000,0.32211,
3450.000,0.323533,
3449.000,0.324568,
3448.000,0.325406,
3447.000,0.326432,
3446.000,0.328011,
3445.000,0.330229,
3444.000,0.332801,
3443.000,0.335216,
3442.000,0.337087,
3441.000,0.338442,
3440.000,0.339633,
3439.000,0.340984,
3438.000,0.342602,
3437.000,0.344494,
3436.000,0.346663,
3435.000,0.349047,
3434.000,0.351558,
3433.000,0.354264,
3432.000,0.357309,
3431.000,0.360591,
3430.000,0.363729,
3429.000,0.366497,
3428.000,0.369118,
3427.000,0.371967,
3426.000,0.375126,
3425.000,0.378397,
3424.000,0.381614,
3423.000,0.384789,
3422.000,0.388004,
3421.000,0.391262,
3420.000,0.39437,
3419.000,0.397007,
3418.000,0.39907,
3417.000,0.400984,
3416.000,0.403398,
3415.000,0.4065,
3414.000,0.409875,
3413.000,0.413154,
3412.000,0.416398,
3411.000,0.419631,
3410.000,0.422403,
3409.000,0.424312,
3408.000,0.425793,
3407.000,0.427893,
3406.000,0.431202,
3405.000,0.435351,
3404.000,0.439593,
3403.000,0.443525,
3402.000,0.447128,
3401.000,0.450433,
3400.000,0.453415,
3399.000,0.456191,
3398.000,0.459182,
3397.000,0.462965,
3396.000,0.46785,
3395.000,0.473456,
3394.000,0.478835,
3393.000,0.483305,
3392.000,0.487239,
3391.000,0.491832,
3390.000,0.497944,
3389.000,0.50526,
3388.000,0.512726,
3387.000,0.519627,
3386.000,0.526099,
3385.000,0.532658,
3384.000,0.539521,
3383.000,0.546505,
3382.000,0.553409,
3381.000,0.560243,
3380.000,0.567102,
3379.000,0.574007,
3378.000,0.580985,
3377.000,0.588149,
3376.000,0.595566,
3375.000,0.603135,
3374.000,0.610752,
3373.000,0.61859,
3372.000,0.627091,
3371.000,0.636613,
3370.000,0.647065,
3369.000,0.657769,
3368.000,0.667664,
3367.000,0.675914,
3366.000,0.682674,
3365.000,0.689278,
3364.000,0.697369,
3363.000,0.707649,
3362.000,0.719385,
3361.000,0.731052,
3360.000,0.741443,
3359.000,0.750441,
3358.000,0.759084,
3357.000,0.768793,
3356.000,0.780174,
3355.000,0.792471,
3354.000,0.804387,
3353.000,0.815475,
3352.000,0.826454,
3351.000,0.838102,
3350.000,0.850268,
3349.000,0.862157,
3348.000,0.873295,
3347.000,0.883942,
3346.000,0.894768,
3345.000,0.906432,
3344.000,0.919353,
3343.000,0.93348,
3342.000,0.948263,
3341.000,0.963061,
3340.000,0.977656,
3339.000,0.992248,
3338.000,1.007,
3337.000,1.02182,
3336.000,1.03666,
3335.000,1.05183,
3334.000,1.06776,
3333.000,1.08459,
3332.000,1.10193,
3331.000,1.11918,
3330.000,1.13604,
3329.000,1.15278,
3328.000,1.16995,
3327.000,1.18802,
3326.000,1.207,
3325.000,1.2264,
3324.000,1.24548,
3323.000,1.26367,
3322.000,1.28092,
3321.000,1.29761,
3320.000,1.3143,
3319.000,1.33147,
3318.000,1.34958,
3317.000,1.36896,
3316.000,1.38971,
3315.000,1.41162,
3314.000,1.43429,
3313.000,1.45727,
3312.000,1.48007,
3311.000,1.50227,
3310.000,1.52404,
3309.000,1.54619,
3308.000,1.5695,
3307.000,1.59395,
3306.000,1.61881,
3305.000,1.64352,
3304.000,1.66815,
3303.000,1.69299,
3302.000,1.71812,
3301.000,1.74352,
3300.000,1.76924,
3299.000,1.79525,
3298.000,1.82136,
3297.000,1.84744,
3296.000,1.87371,
3295.000,1.90053,
3294.000,1.9281,
3293.000,1.95631,
3292.000,1.98489,
3291.000,2.01343,
3290.000,2.04156,
3289.000,2.06933,
3288.000,2.09729,
3287.000,2.12616,
3286.000,2.15611,
3285.000,2.18663,
3284.000,2.21691,
3283.000,2.24644,
3282.000,2.27531,
3281.000,2.30394,
3280.000,2.33279,
3279.000,2.36199,
3278.000,2.39145,
3277.000,2.421,
3276.000,2.45044,
3275.000,2.4795,
3274.000,2.50796,
3273.000,2.53577,
3272.000,2.56302,
3271.000,2.5897,
3270.000,2.61574,
3269.000,2.64118,
3268.000,2.66613,
3267.000,2.69059,
3266.000,2.71432,
3265.000,2.73742,
3264.000,2.7604,
3263.000,2.78357,
3262.000,2.80631,
3261.000,2.8274,
3260.000,2.8462,
3259.000,2.86331,
3258.000,2.87985,
3257.000,2.89629,
3256.000,2.91209,
3255.000,2.92639,
3254.000,2.93871,
3253.000,2.94912,
3252.000,2.9579,
3251.000,2.96533,
3250.000,2.97171,
3249.000,2.97733,
3248.000,2.98227,
3247.000,2.98635,
3246.000,2.98915,
3245.000,2.99033,
3244.000,2.98985,
3243.000,2.98783,
3242.000,2.98437,
3241.000,2.97955,
3240.000,2.97357,
3239.000,2.96671,
3238.000,2.95917,
3237.000,2.95083,
3236.000,2.94139,
3235.000,2.93067,
3234.000,2.91893,
3233.000,2.90664,
3232.000,2.89405,
3231.000,2.88079,
3230.000,2.86616,
3229.000,2.84982,
3228.000,2.83221,
3227.000,2.81425,
3226.000,2.79658,
3225.000,2.77901,
3224.000,2.76077,
3223.000,2.74117,
3222.000,2.72034,
3221.000,2.69916,
3220.000,2.67847,
3219.000,2.65831,
3218.000,2.63795,
3217.000,2.61679,
3216.000,2.59484,
3215.000,2.5725,
3214.000,2.55006,
3213.000,2.52768,
3212.000,2.50555,
3211.000,2.48369,
3210.000,2.46182,
3209.000,2.43955,
3208.000,2.41687,
3207.000,2.39413,
3206.000,2.37158,
3205.000,2.34911,
3204.000,2.3264,
3203.000,2.30328,
3202.000,2.27981,
3201.000,2.25625,
3200.000,2.23293,
3199.000,2.20995,
3198.000,2.18714,
3197.000,2.16422,
3196.000,2.14113,
3195.000,2.11811,
3194.000,2.09538,
3193.000,2.07289,
3192.000,2.05031,
3191.000,2.02728,
3190.000,2.00373,
3189.000,1.98004,
3188.000,1.95681,
3187.000,1.93444,
3186.000,1.91297,
3185.000,1.89224,
3184.000,1.8719,
3183.000,1.85141,
3182.000,1.83017,
3181.000,1.80806,
3180.000,1.78558,
3179.000,1.7634,
3178.000,1.74183,
3177.000,1.72092,
3176.000,1.70059,
3175.000,1.68067,
3174.000,1.66071,
3173.000,1.64017,
3172.000,1.61895,
3171.000,1.59741,
3170.000,1.57616,
3169.000,1.55571,
3168.000,1.53625,
3167.000,1.51749,
3166.000,1.49884,
3165.000,1.47987,
3164.000,1.46054,
3163.000,1.44116,
3162.000,1.42203,
3161.000,1.4034,
3160.000,1.38537,
3159.000,1.36776,
3158.000,1.35016,
3157.000,1.33237,
3156.000,1.31459,
3155.000,1.2971,
3154.000,1.27983,
3153.000,1.26254,
3152.000,1.24512,
3151.000,1.22749,
3150.000,1.2094,
3149.000,1.19078,
3148.000,1.17217,
3147.000,1.15441,
3146.000,1.13785,
3145.000,1.122,
3144.000,1.10617,
3143.000,1.09017,
3142.000,1.07437,
3141.000,1.05909,
3140.000,1.04417,
3139.000,1.02905,
3138.000,1.01339,
3137.000,0.997417,
3136.000,0.981717,
3135.000,0.96658,
3134.000,0.951741,
3133.000,0.936799,
3132.000,0.92172,
3131.000,0.906778,
3130.000,0.892167,
3129.000,0.877884,
3128.000,0.86388,
3127.000,0.850123,
3126.000,0.836529,
3125.000,0.82302,
3124.000,0.809632,
3123.000,0.796473,
3122.000,0.783625,
3121.000,0.771168,
3120.000,0.759182,
3119.000,0.747543,
3118.000,0.735755,
3117.000,0.723228,
3116.000,0.709819,
3115.000,0.696034,
3114.000,0.68263,
3113.000,0.670048,
3112.000,0.658236,
3111.000,0.646936,
3110.000,0.636017,
3109.000,0.625417,
3108.000,0.614846,
3107.000,0.603831,
3106.000,0.592254,
3105.000,0.580659,
3104.000,0.569753,
3103.000,0.559646,
3102.000,0.549839,
3101.000,0.539905,
3100.000,0.529876,
3099.000,0.520016,
3098.000,0.510558,
3097.000,0.50171,
3096.000,0.493515,
3095.000,0.485576,
3094.000,0.4773,
3093.000,0.468593,
3092.000,0.459972,
3091.000,0.451814,
3090.000,0.443852,
3089.000,0.435712,
3088.000,0.42761,
3087.000,0.420085,
3086.000,0.413235,
3085.000,0.406609,
3084.000,0.399873,
3083.000,0.393221,
3082.000,0.387048,
3081.000,0.381417,
3080.000,0.375914,
3079.000,0.370023,
3078.000,0.363667,
3077.000,0.35734,
3076.000,0.351581,
3075.000,0.346378,
3074.000,0.341333,
3073.000,0.336339,
3072.000,0.33165,
3071.000,0.327222,
3070.000,0.322477,
3069.000,0.317116,
3068.000,0.311754,
3067.000,0.307274,
3066.000,0.303757,
3065.000,0.300462,
3064.000,0.29677,
3063.000,0.292729,
3062.000,0.288688,
3061.000,0.284796,
3060.000,0.280974,
3059.000,0.277167,
3058.000,0.2735,
3057.000,0.270222,
3056.000,0.267445,
3055.000,0.264917,
3054.000,0.262211,
3053.000,0.25925,
3052.000,0.256443,
3051.000,0.254107,
3050.000,0.251955,
3049.000,0.249377,
3048.000,0.246112,
3047.000,0.242438,
3046.000,0.238839,
3045.000,0.235691,
3044.000,0.233157,
3043.000,0.231094,
3042.000,0.229107,
3041.000,0.226842,
3040.000,0.22423,
3039.000,0.22138,
3038.000,0.218453,
3037.000,0.215726,
3036.000,0.213529,
3035.000,0.211903,
3034.000,0.210509,
3033.000,0.209073,
3032.000,0.207683,
3031.000,0.206427,
3030.000,0.205061,
3029.000,0.203358,
3028.000,0.201565,
3027.000,0.200048,
3026.000,0.198684,
3025.000,0.197021,
3024.000,0.194965,
3023.000,0.192862,
3022.000,0.190917,
3021.000,0.188979,
3020.000,0.18695,
3019.000,0.185008,
3018.000,0.183306,
3017.000,0.181777,
3016.000,0.180338,
3015.000,0.17901,
3014.000,0.177668,
3013.000,0.175968,
3012.000,0.173738,
3011.000,0.171326,
3010.000,0.169401,
3009.000,0.168395,
3008.000,0.168073,
3007.000,0.167596,
3006.000,0.166148,
3005.000,0.16378,
3004.000,0.161582,
3003.000,0.160756,
3002.000,0.161433,
3001.000,0.16255,
3000.000,0.162847,
2999.000,0.161874,
2998.000,0.160094,
2997.000,0.158337,
2996.000,0.157186,
2995.000,0.156593,
2994.000,0.155928,
2993.000,0.154517,
2992.000,0.152274,
2991.000,0.14977,
2990.000,0.14773,
2989.000,0.146553,
2988.000,0.146219,
2987.000,0.146403,
2986.000,0.146615,
2985.000,0.146407,
2984.000,0.145611,
2983.000,0.144383,
2982.000,0.143059,
2981.000,0.141956,
2980.000,0.141236,
2979.000,0.140795,
2978.000,0.140345,
2977.000,0.139661,
2976.000,0.138682,
2975.000,0.137329,
2974.000,0.135439,
2973.000,0.133094,
2972.000,0.130837,
2971.000,0.129231,
2970.000,0.12822,
2969.000,0.127188,
2968.000,0.125602,
2967.000,0.123372,
2966.000,0.120628,
2965.000,0.117522,
2964.000,0.11427,
2963.000,0.111067,
2962.000,0.107794,
2961.000,0.104096,
2960.000,0.0999309,
2959.000,0.095858,
2958.000,0.0925513,
2957.000,0.0901671,
2956.000,0.0883611,
2955.000,0.0867936,
2954.000,0.0853802,
2953.000,0.0841013,
2952.000,0.0828393,
2951.000,0.0814977,
2950.000,0.0801402,
2949.000,0.0788457,
2948.000,0.0774549,
2947.000,0.0755986,
2946.000,0.073088,
2945.000,0.0702336,
2944.000,0.0676415,
2943.000,0.0656416,
2942.000,0.0640164,
2941.000,0.0623742,
2940.000,0.0607369,
2939.000,0.0596711,
2938.000,0.0597534,
2937.000,0.0609669,
2936.000,0.0626718,
2935.000,0.0641794,
2934.000,0.0653953,
2933.000,0.0668664,
2932.000,0.0691452,
2931.000,0.0721181,
2930.000,0.0751345,
2929.000,0.0778114,
2928.000,0.0804309,
2927.000,0.0834681,
2926.000,0.0870748,
2925.000,0.0911975,
2924.000,0.0958164,
2923.000,0.100697,
2922.000,0.105157,
2921.000,0.108559,
2920.000,0.111027,
2919.000,0.113324,
2918.000,0.11601,
2917.000,0.118982,
2916.000,0.121822,
2915.000,0.124263,
2914.000,0.126182,
2913.000,0.127435,
2912.000,0.127895,
2911.000,0.127594,
2910.000,0.126752,
2909.000,0.125734,
2908.000,0.124985,
2907.000,0.124795,
2906.000,0.125078,
2905.000,0.125444,
2904.000,0.125548,
2903.000,0.125351,
2902.000,0.125064,
2901.000,0.124926,
2900.000,0.125006,
2899.000,0.125151,
2898.000,0.125169,
2897.000,0.125104,
2896.000,0.125193,
2895.000,0.125488,
2894.000,0.125692,
2893.000,0.125529,
2892.000,0.125113,
2891.000,0.124731,
2890.000,0.124386,
2889.000,0.123811,
2888.000,0.122932,
2887.000,0.122053,
2886.000,0.121509,
2885.000,0.121325,
2884.000,0.121304,
2883.000,0.121278,
2882.000,0.121162,
2881.000,0.120871,
2880.000,0.1203,
2879.000,0.119395,
2878.000,0.118263,
2877.000,0.117213,
2876.000,0.116514,
2875.000,0.116028,
2874.000,0.115222,
2873.000,0.113727,
2872.000,0.11175,
2871.000,0.109764,
2870.000,0.10793,
2869.000,0.106056,
2868.000,0.10401,
2867.000,0.101829,
2866.000,0.0995385,
2865.000,0.0972637,
2864.000,0.0954986,
2863.000,0.0948153,
2862.000,0.0951897,
2861.000,0.0959893,
2860.000,0.0967715,
2859.000,0.097723,
2858.000,0.0991871,
2857.000,0.101152,
2856.000,0.103436,
2855.000,0.106004,
2854.000,0.108773,
2853.000,0.111319,
2852.000,0.113184,
2851.000,0.11441,
2850.000,0.115514,
2849.000,0.11696,
2848.000,0.118785,
2847.000,0.120661,
2846.000,0.122135,
2845.000,0.122921,
2844.000,0.123139,
2843.000,0.123246,
2842.000,0.123579,
2841.000,0.124015,
2840.000,0.12422,
2839.000,0.124164,
2838.000,0.124166,
2837.000,0.124443,
2836.000,0.124793,
2835.000,0.124829,
2834.000,0.124429,
2833.000,0.123871,
2832.000,0.123557,
2831.000,0.123635,
2830.000,0.123905,
2829.000,0.124086,
2828.000,0.124145,
2827.000,0.124267,
2826.000,0.124521,
2825.000,0.124739,
2824.000,0.124856,
2823.000,0.125184,
2822.000,0.126101,
2821.000,0.127456,
2820.000,0.128522,
2819.000,0.128626,
2818.000,0.127778,
2817.000,0.126606,
2816.000,0.125781,
2815.000,0.1256,
2814.000,0.126009,
2813.000,0.126823,
2812.000,0.127775,
2811.000,0.128491,
2810.000,0.128683,
2809.000,0.128513,
2808.000,0.128589,
2807.000,0.129393,
2806.000,0.130705,
2805.000,0.131762,
2804.000,0.132031,
2803.000,0.131752,
2802.000,0.131684,
2801.000,0.132434,
2800.000,0.134027,
2799.000,0.135966,
2798.000,0.137582,
2797.000,0.138422,
2796.000,0.138464,
2795.000,0.13805,
2794.000,0.137619,
2793.000,0.137468,
2792.000,0.137681,
2791.000,0.13815,
2790.000,0.138656,
2789.000,0.139055,
2788.000,0.139454,
2787.000,0.140101,
2786.000,0.14108,
2785.000,0.142226,
2784.000,0.143364,
2783.000,0.144454,
2782.000,0.145427,
2781.000,0.146098,
2780.000,0.146463,
2779.000,0.146916,
2778.000,0.1479,
2777.000,0.149385,
2776.000,0.150913,
2775.000,0.152127,
2774.000,0.153027,
2773.000,0.153751,
2772.000,0.15439,
2771.000,0.155087,
2770.000,0.156035,
2769.000,0.15724,
2768.000,0.158455,
2767.000,0.159503,
2766.000,0.160509,
2765.000,0.161665,
2764.000,0.162902,
2763.000,0.164006,
2762.000,0.164959,
2761.000,0.165966,
2760.000,0.167186,
2759.000,0.168637,
2758.000,0.170344,
2757.000,0.172355,
2756.000,0.174574,
2755.000,0.17674,
2754.000,0.178626,
2753.000,0.180151,
2752.000,0.181267,
2751.000,0.181938,
2750.000,0.182337,
2749.000,0.182912,
2748.000,0.18406,
2747.000,0.185791,
2746.000,0.187824,
2745.000,0.189941,
2744.000,0.1921,
2743.000,0.194256,
2742.000,0.196282,
2741.000,0.198155,
2740.000,0.200089,
2739.000,0.202331,
2738.000,0.204787,
2737.000,0.206993,
2736.000,0.208591,
2735.000,0.209849,
2734.000,0.211562,
2733.000,0.214279,
2732.000,0.217672,
2731.000,0.220848,
2730.000,0.223309,
2729.000,0.225414,
2728.000,0.227776,
2727.000,0.230448,
2726.000,0.232925,
2725.000,0.234871,
2724.000,0.236537,
2723.000,0.238469,
2722.000,0.241017,
2721.000,0.24419,
2720.000,0.247773,
2719.000,0.251483,
2718.000,0.255157,
2717.000,0.258895,
2716.000,0.262936,
2715.000,0.267336,
2714.000,0.271861,
2713.000,0.276265,
2712.000,0.280509,
2711.000,0.284604,
2710.000,0.288404,
2709.000,0.291749,
2708.000,0.294749,
2707.000,0.297777,
2706.000,0.301232,
2705.000,0.305401,
2704.000,0.310412,
2703.000,0.316124,
2702.000,0.322065,
2701.000,0.327683,
2700.000,0.332739,
2699.000,0.337388,
2698.000,0.341934,
2697.000,0.346618,
2696.000,0.351565,
2695.000,0.356756,
2694.000,0.362013,
2693.000,0.367232,
2692.000,0.372655,
2691.000,0.378724,
2690.000,0.385555,
2689.000,0.392739,
2688.000,0.399817,
2687.000,0.406806,
2686.000,0.414048,
2685.000,0.421613,
2684.000,0.429053,
2683.000,0.435758,
2682.000,0.441453,
2681.000,0.446357,
2680.000,0.451007,
2679.000,0.455957,
2678.000,0.461498,
2677.000,0.467555,
2676.000,0.473848,
2675.000,0.480162,
2674.000,0.486406,
2673.000,0.492478,
2672.000,0.498231,
2671.000,0.503672,
2670.000,0.509119,
2669.000,0.515041,
2668.000,0.521749,
2667.000,0.529304,
2666.000,0.537679,
2665.000,0.546933,
2664.000,0.557182,
2663.000,0.568458,
2662.000,0.580666,
2661.000,0.593598,
2660.000,0.606959,
2659.000,0.620404,
2658.000,0.633646,
2657.000,0.646648,
2656.000,0.65961,
2655.000,0.672705,
2654.000,0.685829,
2653.000,0.698694,
2652.000,0.711196,
2651.000,0.723565,
2650.000,0.736116,
2649.000,0.748996,
2648.000,0.762303,
2647.000,0.776319,
2646.000,0.791357,
2645.000,0.807385,
2644.000,0.823977,
2643.000,0.840691,
2642.000,0.857429,
2641.000,0.874412,
2640.000,0.891999,
2639.000,0.910589,
2638.000,0.930432,
2637.000,0.951395,
2636.000,0.972979,
2635.000,0.994688,
2634.000,1.01631,
2633.000,1.0377,
2632.000,1.0586,
2631.000,1.07882,
2630.000,1.09875,
2629.000,1.11917,
2628.000,1.14063,
2627.000,1.16302,
2626.000,1.18583,
2625.000,1.20856,
2624.000,1.23095,
2623.000,1.25291,
2622.000,1.27459,
2621.000,1.29614,
2620.000,1.31747,
2619.000,1.33828,
2618.000,1.35848,
2617.000,1.37855,
2616.000,1.39906,
2615.000,1.42006,
2614.000,1.44109,
2613.000,1.46191,
2612.000,1.48285,
2611.000,1.5045,
2610.000,1.52704,
2609.000,1.55028,
2608.000,1.57411,
2607.000,1.59874,
2606.000,1.6246,
2605.000,1.65191,
2604.000,1.68035,
2603.000,1.70895,
2602.000,1.73658,
2601.000,1.76268,
2600.000,1.78756,
2599.000,1.81197,
2598.000,1.83639,
2597.000,1.86076,
2596.000,1.88448,
2595.000,1.90669,
2594.000,1.92659,
2593.000,1.94405,
2592.000,1.95972,
2591.000,1.97431,
2590.000,1.9878,
2589.000,1.9996,
2588.000,2.00944,
2587.000,2.01779,
2586.000,2.0253,
2585.000,2.03212,
2584.000,2.03798,
2583.000,2.04247,
2582.000,2.04526,
2581.000,2.04622,
2580.000,2.04557,
2579.000,2.04376,
2578.000,2.04115,
2577.000,2.0377,
2576.000,2.03297,
2575.000,2.02639,
2574.000,2.01762,
2573.000,2.00697,
2572.000,1.9954,
2571.000,1.98384,
2570.000,1.9726,
2569.000,1.96146,
2568.000,1.95004,
2567.000,1.93808,
2566.000,1.92533,
2565.000,1.9116,
2564.000,1.89703,
2563.000,1.88189,
2562.000,1.86642,
2561.000,1.85081,
2560.000,1.83535,
2559.000,1.82008,
2558.000,1.80444,
2557.000,1.78763,
2556.000,1.76938,
2555.000,1.75015,
2554.000,1.73057,
2553.000,1.71086,
2552.000,1.69099,
2551.000,1.67089,
2550.000,1.65055,
2549.000,1.63,
2548.000,1.60939,
2547.000,1.58893,
2546.000,1.56865,
2545.000,1.54845,
2544.000,1.52826,
2543.000,1.50817,
2542.000,1.4882,
2541.000,1.46823,
2540.000,1.44827,
2539.000,1.42859,
2538.000,1.40955,
2537.000,1.39122,
2536.000,1.37318,
2535.000,1.35481,
2534.000,1.33575,
2533.000,1.31641,
2532.000,1.29773,
2531.000,1.28037,
2530.000,1.26403,
2529.000,1.24777,
2528.000,1.23105,
2527.000,1.214,
2526.000,1.19711,
2525.000,1.18063,
2524.000,1.16456,
2523.000,1.14883,
2522.000,1.13333,
2521.000,1.11785,
2520.000,1.10226,
2519.000,1.08663,
2518.000,1.07122,
2517.000,1.05616,
2516.000,1.04128,
2515.000,1.02624,
2514.000,1.01095,
2513.000,0.995717,
2512.000,0.980824,
2511.000,0.966066,
2510.000,0.95093,
2509.000,0.935235,
2508.000,0.919382,
2507.000,0.903921,
2506.000,0.889131,
2505.000,0.875048,
2504.000,0.861533,
2503.000,0.848135,
2502.000,0.834236,
2501.000,0.819666,
2500.000,0.805005,
2499.000,0.790977,
2498.000,0.777674,
2497.000,0.764608,
2496.000,0.751363,
2495.000,0.737956,
2494.000,0.724646,
2493.000,0.711688,
2492.000,0.699199,
2491.000,0.687007,
2490.000,0.674712,
2489.000,0.662062,
2488.000,0.649241,
2487.000,0.636653,
2486.000,0.62448,
2485.000,0.612633,
2484.000,0.600955,
2483.000,0.589325,
2482.000,0.577716,
2481.000,0.566335,
2480.000,0.55552,
2479.000,0.545223,
2478.000,0.534779,
2477.000,0.523567,
2476.000,0.511826,
2475.000,0.500473,
2474.000,0.490086,
2473.000,0.480374,
2472.000,0.470658,
2471.000,0.460593,
2470.000,0.450363,
2469.000,0.440466,
2468.000,0.431395,
2467.000,0.423311,
2466.000,0.415832,
2465.000,0.408226,
2464.000,0.399929,
2463.000,0.390912,
2462.000,0.381627,
2461.000,0.372687,
2460.000,0.364551,
2459.000,0.357344,
2458.000,0.350878,
2457.000,0.344882,
2456.000,0.339115,
2455.000,0.333282,
2454.000,0.327013,
2453.000,0.320153,
2452.000,0.313025,
2451.000,0.30622,
2450.000,0.300089,
2449.000,0.294525,
2448.000,0.289186,
2447.000,0.283828,
2446.000,0.278479,
2445.000,0.273398,
2444.000,0.26882,
2443.000,0.264619,
2442.000,0.260301,
2441.000,0.255433,
2440.000,0.250047,
2439.000,0.244554,
2438.000,0.239343,
2437.000,0.234576,
2436.000,0.230254,
2435.000,0.226268,
2434.000,0.222432,
2433.000,0.218598,
2432.000,0.214733,
2431.000,0.210867,
2430.000,0.207059,
2429.000,0.2035,
2428.000,0.200438,
2427.000,0.19786,
2426.000,0.1954,
2425.000,0.192757,
2424.000,0.190065,
2423.000,0.187577,
2422.000,0.18514,
2421.000,0.182358,
2420.000,0.179248,
2419.000,0.176341,
2418.000,0.174002,
2417.000,0.171996,
2416.000,0.169916,
2415.000,0.167765,
2414.000,0.165822,
2413.000,0.164099,
2412.000,0.162286,
2411.000,0.160207,
2410.000,0.158049,
2409.000,0.156081,
2408.000,0.154334,
2407.000,0.152645,
2406.000,0.150874,
2405.000,0.148946,
2404.000,0.146788,
2403.000,0.144467,
2402.000,0.142347,
2401.000,0.140827,
2400.000,0.139804,
2399.000,0.13865,
2398.000,0.136915,
2397.000,0.134919,
2396.000,0.13336,
2395.000,0.132456,
2394.000,0.131778,
2393.000,0.130834,
2392.000,0.129506,
2391.000,0.127892,
2390.000,0.126113,
2389.000,0.12439,
2388.000,0.123006,
2387.000,0.121985,
2386.000,0.121018,
2385.000,0.119864,
2384.000,0.11862,
2383.000,0.117426,
2382.000,0.116163,
2381.000,0.114702,
2380.000,0.113256,
2379.000,0.112217,
2378.000,0.111696,
2377.000,0.111408,
2376.000,0.110896,
2375.000,0.109754,
2374.000,0.107875,
2373.000,0.105787,
2372.000,0.104529,
2371.000,0.104716,
2370.000,0.105727,
2369.000,0.106209,
2368.000,0.105407,
2367.000,0.103642,
2366.000,0.1016,
2365.000,0.0996868,
2364.000,0.0981227,
2363.000,0.0970983,
2362.000,0.0965788,
2361.000,0.0962683,
2360.000,0.0959249,
2359.000,0.0954364,
2358.000,0.0946598,
2357.000,0.0935908,
2356.000,0.0926359,
2355.000,0.0923259,
2354.000,0.0925782,
2353.000,0.0925947,
2352.000,0.091724,
2351.000,0.090138,
2350.000,0.0885922,
2349.000,0.0876523,
2348.000,0.0874155,
2347.000,0.0877029,
2346.000,0.0881701,
2345.000,0.088451,
2344.000,0.0883045,
2343.000,0.0877043,
2342.000,0.0866158,
2341.000,0.0848631,
2340.000,0.0825801,
2339.000,0.0805182,
2338.000,0.0796957,
2337.000,0.080536,
2336.000,0.082458,
2335.000,0.0842342,
2334.000,0.0848092,
2333.000,0.0839719,
2332.000,0.0823933,
2331.000,0.0809772,
2330.000,0.080115,
2329.000,0.079552,
2328.000,0.0788971,
2327.000,0.0781068,
2326.000,0.0773583,
2325.000,0.076751,
2324.000,0.0761023,
2323.000,0.0752592,
2322.000,0.0744155,
2321.000,0.074002,
2320.000,0.0742033,
2319.000,0.0746466,
2318.000,0.0747377,
2317.000,0.0742451,
2316.000,0.0735502,
2315.000,0.0731884,
2314.000,0.0733072,
2313.000,0.0736902,
2312.000,0.0740683,
2311.000,0.074215,
2310.000,0.0738706,
2309.000,0.0729829,
2308.000,0.071897,
2307.000,0.0710503,
2306.000,0.0704651,
2305.000,0.069873,
2304.000,0.069252,
2303.000,0.068939,
2302.000,0.0691425,
2301.000,0.069675,
2300.000,0.0702518,
2299.000,0.0707512,
2298.000,0.0709891,
2297.000,0.0705962,
2296.000,0.0694644,
2295.000,0.0681439,
2294.000,0.0673754,
2293.000,0.0672727,
2292.000,0.0672491,
2291.000,0.0667992,
2290.000,0.066,
2289.000,0.0652026,
2288.000,0.0645773,
2287.000,0.064159,
2286.000,0.0640758,
2285.000,0.0643625,
2284.000,0.0645173,
2283.000,0.0636849,
2282.000,0.06163,
2281.000,0.0593941,
2280.000,0.0586525,
2279.000,0.0602185,
2278.000,0.0633012,
2277.000,0.0662013,
2276.000,0.0676277,
2275.000,0.0674367,
2274.000,0.0663546,
2273.000,0.0651948,
2272.000,0.0643899,
2271.000,0.0639872,
2270.000,0.063842,
2269.000,0.0637809,
2268.000,0.0636258,
2267.000,0.0631746,
2266.000,0.0623474,
2265.000,0.06141,
2264.000,0.0609254,
2263.000,0.061264,
2262.000,0.062154,
2261.000,0.0629412,
2260.000,0.0632986,
2259.000,0.0634507,
2258.000,0.0636853,
2257.000,0.0638738,
2256.000,0.0636444,
2255.000,0.0629685,
2254.000,0.0623814,
2253.000,0.0625294,
2252.000,0.0635004,
2251.000,0.0646501,
2250.000,0.0651642,
2249.000,0.0647639,
2248.000,0.0638447,
2247.000,0.0630271,
2246.000,0.0626683,
2245.000,0.0627708,
2244.000,0.0631307,
2243.000,0.063459,
2242.000,0.0634513,
2241.000,0.0629778,
2240.000,0.0622529,
2239.000,0.0616777,
2238.000,0.0614591,
2237.000,0.0615322,
2236.000,0.0618091,
2235.000,0.0622225,
2234.000,0.0625598,
2233.000,0.0625792,
2232.000,0.0623239,
2231.000,0.0621003,
2230.000,0.0620825,
2229.000,0.0621278,
2228.000,0.0621036,
2227.000,0.0621953,
2226.000,0.062652,
2225.000,0.0633312,
2224.000,0.0637409,
2223.000,0.0635644,
2222.000,0.0629639,
2221.000,0.0623134,
2220.000,0.0618074,
2219.000,0.0614507,
2218.000,0.0612839,
2217.000,0.0613824,
2216.000,0.0616154,
2215.000,0.061606,
2214.000,0.0610833,
2213.000,0.0602444,
2212.000,0.0596546,
2211.000,0.0597916,
2210.000,0.0606879,
2209.000,0.0619548,
2208.000,0.0630714,
2207.000,0.06367,
2206.000,0.0637176,
2205.000,0.0635252,
2204.000,0.0635111,
2203.000,0.063857,
2202.000,0.0643925,
2201.000,0.0647742,
2200.000,0.0647507,
2199.000,0.06433,
2198.000,0.0637736,
2197.000,0.0634184,
2196.000,0.0634523,
2195.000,0.0637759,
2194.000,0.0641324,
2193.000,0.0643883,
2192.000,0.0645969,
2191.000,0.0648345,
2190.000,0.0650898,
2189.000,0.0653203,
2188.000,0.0655058,
2187.000,0.0656207,
2186.000,0.0656416,
2185.000,0.0656159,
2184.000,0.0656147,
2183.000,0.0656337,
2182.000,0.0657016,
2181.000,0.0660051,
2180.000,0.0666473,
2179.000,0.0673239,
2178.000,0.0675498,
2177.000,0.0672781,
2176.000,0.0670407,
2175.000,0.0673008,
2174.000,0.0679227,
2173.000,0.0685192,
2172.000,0.0689944,
2171.000,0.069437,
2170.000,0.0697974,
2169.000,0.0700111,
2168.000,0.0702615,
2167.000,0.0707981,
2166.000,0.0715529,
2165.000,0.0722057,
2164.000,0.0725532,
2163.000,0.0725604,
2162.000,0.0722036,
2161.000,0.0716029,
2160.000,0.0712099,
2159.000,0.0714906,
2158.000,0.0724023,
2157.000,0.0734368,
2156.000,0.0741661,
2155.000,0.0744927,
2154.000,0.0744739,
2153.000,0.0742944,
2152.000,0.0743378,
2151.000,0.0748734,
2150.000,0.0756498,
2149.000,0.0761613,
2148.000,0.0763198,
2147.000,0.0765153,
2146.000,0.0769914,
2145.000,0.0776179,
2144.000,0.0783051,
2143.000,0.0791534,
2142.000,0.0800318,
2141.000,0.0804921,
2140.000,0.0803958,
2139.000,0.0802666,
2138.000,0.0806683,
2137.000,0.0814975,
2136.000,0.0822375,
2135.000,0.0826328,
2134.000,0.0827997,
2133.000,0.0828568,
2132.000,0.0827751,
2131.000,0.08259,
2130.000,0.0824885,
2129.000,0.0826312,
2128.000,0.0830709,
2127.000,0.0838517,
2126.000,0.084997,
2125.000,0.0863887,
2124.000,0.0878007,
2123.000,0.0890685,
2122.000,0.0901605,
2121.000,0.0911152,
2120.000,0.0919804,
2119.000,0.0927883,
2118.000,0.0935223,
2117.000,0.094135,
2116.000,0.0946134,
2115.000,0.094936,
2114.000,0.095044,
2113.000,0.0950591,
2112.000,0.0954378,
2111.000,0.0965923,
2110.000,0.0983194,
2109.000,0.0999,
2108.000,0.100921,
2107.000,0.10172,
2106.000,0.102826,
2105.000,0.10423,
2104.000,0.105491,
2103.000,0.106379,
2102.000,0.107046,
2101.000,0.107684,
2100.000,0.108346,
2099.000,0.109075,
2098.000,0.109945,
2097.000,0.110945,
2096.000,0.112018,
2095.000,0.113178,
2094.000,0.114417,
2093.000,0.115562,
2092.000,0.116475,
2091.000,0.117382,
2090.000,0.118748,
2089.000,0.12076,
2088.000,0.123136,
2087.000,0.125494,
2086.000,0.127707,
2085.000,0.129801,
2084.000,0.131683,
2083.000,0.133146,
2082.000,0.134126,
2081.000,0.134891,
2080.000,0.135911,
2079.000,0.137522,
2078.000,0.139647,
2077.000,0.141835,
2076.000,0.143672,
2075.000,0.145143,
2074.000,0.146621,
2073.000,0.148566,
2072.000,0.151201,
2071.000,0.15434,
2070.000,0.157469,
2069.000,0.160108,
2068.000,0.162187,
2067.000,0.164049,
2066.000,0.166091,
2065.000,0.168485,
2064.000,0.171204,
2063.000,0.174072,
2062.000,0.176758,
2061.000,0.179018,
2060.000,0.18111,
2059.000,0.183712,
2058.000,0.187163,
2057.000,0.190953,
2056.000,0.194279,
2055.000,0.196993,
2054.000,0.199655,
2053.000,0.202733,
2052.000,0.206152,
2051.000,0.209714,
2050.000,0.213607,
2049.000,0.218211,
2048.000,0.223555,
2047.000,0.229183,
2046.000,0.234567,
2045.000,0.239543,
2044.000,0.244394,
2043.000,0.249597,
2042.000,0.255394,
2041.000,0.261516,
2040.000,0.267361,
2039.000,0.272553,
2038.000,0.277331,
2037.000,0.282306,
2036.000,0.287893,
2035.000,0.294044,
2034.000,0.300512,
2033.000,0.307295,
2032.000,0.314667,
2031.000,0.322701,
2030.000,0.330877,
2029.000,0.338415,
2028.000,0.345114,
2027.000,0.351634,
2026.000,0.358799,
2025.000,0.36672,
2024.000,0.374851,
2023.000,0.382849,
2022.000,0.39107,
2021.000,0.400098,
2020.000,0.409967,
2019.000,0.420122,
2018.000,0.430091,
2017.000,0.439936,
2016.000,0.449963,
2015.000,0.460171,
2014.000,0.470221,
2013.000,0.479994,
2012.000,0.489879,
2011.000,0.500359,
2010.000,0.511534,
2009.000,0.523129,
2008.000,0.534884,
2007.000,0.546754,
2006.000,0.558769,
2005.000,0.570937,
2004.000,0.583371,
2003.000,0.596236,
2002.000,0.609583,
2001.000,0.62343,
2000.000,0.637897,
1999.000,0.653115,
1998.000,0.668811,
1997.000,0.684502,
1996.000,0.700063,
1995.000,0.715741,
1994.000,0.731999,
1993.000,0.749384,
1992.000,0.76809,
1991.000,0.787198,
1990.000,0.804906,
1989.000,0.820355,
1988.000,0.834862,
1987.000,0.850094,
1986.000,0.865749,
1985.000,0.880331,
1984.000,0.893558,
1983.000,0.906669,
1982.000,0.920422,
1981.000,0.934204,
1980.000,0.947351,
1979.000,0.960199,
1978.000,0.97315,
1977.000,0.98605,
1976.000,0.998912,
1975.000,1.01222,
1974.000,1.02625,
1973.000,1.04056,
1972.000,1.05461,
1971.000,1.06821,
1970.000,1.08134,
1969.000,1.09439,
1968.000,1.10847,
1967.000,1.12441,
1966.000,1.1409,
1965.000,1.15439,
1964.000,1.16221,
1963.000,1.16549,
1962.000,1.16758,
1961.000,1.17058,
1960.000,1.17431,
1959.000,1.17749,
1958.000,1.17911,
1957.000,1.17893,
1956.000,1.17744,
1955.000,1.17534,
1954.000,1.17254,
1953.000,1.16812,
1952.000,1.16165,
1951.000,1.15386,
1950.000,1.14595,
1949.000,1.13798,
1948.000,1.12972,
1947.000,1.12095,
1946.000,1.11085,
1945.000,1.1012,
1944.000,1.09129,
1943.000,1.08164,
1942.000,1.07204,
1941.000,1.06201,
1940.000,1.05122,
1939.000,1.04002,
1938.000,1.02881,
1937.000,1.0176,
1936.000,1.00617,
1935.000,0.994406,
1934.000,0.982244,
1933.000,0.969531,
1932.000,0.956224,
1931.000,0.942495,
1930.000,0.928522,
1929.000,0.914352,
1928.000,0.900069,
1927.000,0.885805,
1926.000,0.871485,
1925.000,0.856871,
1924.000,0.84198,
1923.000,0.827193,
1922.000,0.81278,
1921.000,0.798526,
1920.000,0.784011,
1919.000,0.769108,
1918.000,0.754071,
1917.000,0.739256,
1916.000,0.724773,
1915.000,0.710423,
1914.000,0.695832,
1913.000,0.681159,
1912.000,0.666455,
1911.000,0.652589,
1910.000,0.638391,
1909.000,0.626017,
1908.000,0.617968,
1907.000,0.604745,
1906.000,0.590778,
1905.000,0.575839,
1904.000,0.561937,
1903.000,0.549463,
1902.000,0.538266,
1901.000,0.527308,
1900.000,0.516077,
1899.000,0.504778,
1898.000,0.493412,
1897.000,0.482282,
1896.000,0.470864,
1895.000,0.458475,
1894.000,0.447034,
1893.000,0.435686,
1892.000,0.424402,
1891.000,0.413516,
1890.000,0.402445,
1889.000,0.392826,
1888.000,0.38572,
1887.000,0.374555,
1886.000,0.362779,
1885.000,0.351392,
1884.000,0.341681,
1883.000,0.332635,
1882.000,0.323314,
1881.000,0.313614,
1880.000,0.304353,
1879.000,0.295982,
1878.000,0.28805,
1877.000,0.279912,
1876.000,0.271487,
1875.000,0.2633,
1874.000,0.255962,
1873.000,0.24956,
1872.000,0.243638,
1871.000,0.237871,
1870.000,0.232553,
1869.000,0.228305,
1868.000,0.225174,
1867.000,0.221968,
1866.000,0.217116,
1865.000,0.2105,
1864.000,0.203485,
1863.000,0.197265,
1862.000,0.192103,
1861.000,0.1876,
1860.000,0.183197,
1859.000,0.178635,
1858.000,0.174091,
1857.000,0.169837,
1856.000,0.165804,
1855.000,0.161638,
1854.000,0.157221,
1853.000,0.152882,
1852.000,0.148974,
1851.000,0.145511,
1850.000,0.14238,
1849.000,0.139762,
1848.000,0.13774,
1847.000,0.135739,
1846.000,0.132935,
1845.000,0.129177,
1844.000,0.125197,
1843.000,0.121751,
1842.000,0.118874,
1841.000,0.11621,
1840.000,0.113672,
1839.000,0.111271,
1838.000,0.108938,
1837.000,0.106684,
1836.000,0.104476,
1835.000,0.10219,
1834.000,0.0997691,
1833.000,0.0973885,
1832.000,0.0953028,
1831.000,0.0935347,
1830.000,0.0919219,
1829.000,0.0903866,
1828.000,0.0888319,
1827.000,0.0871653,
1826.000,0.085662,
1825.000,0.0845558,
1824.000,0.0835132,
1823.000,0.0819766,
1822.000,0.0798458,
1821.000,0.0776139,
1820.000,0.0756982,
1819.000,0.0740664,
1818.000,0.0726774,
1817.000,0.0717381,
1816.000,0.0712728,
1815.000,0.070839,
1814.000,0.069907,
1813.000,0.06838,
1812.000,0.0665563,
1811.000,0.0647862,
1810.000,0.0634757,
1809.000,0.0629929,
1808.000,0.0632985,
1807.000,0.0638748,
1806.000,0.0641374,
1805.000,0.0638783,
1804.000,0.0632002,
1803.000,0.0621887,
1802.000,0.0609314,
1801.000,0.0597608,
1800.000,0.0590172,
1799.000,0.058441,
1798.000,0.0574372,
1797.000,0.0559364,
1796.000,0.054457,
1795.000,0.0534403,
1794.000,0.0528872,
1793.000,0.0526201,
1792.000,0.0525296,
1791.000,0.0524619,
1790.000,0.0521181,
1789.000,0.0513061,
1788.000,0.0502248,
1787.000,0.0492003,
1786.000,0.0483986,
1785.000,0.0479387,
1784.000,0.0478434,
1783.000,0.0478416,
1782.000,0.0475133,
1781.000,0.0467544,
1780.000,0.0457994,
1779.000,0.0447415,
1778.000,0.0434913,
1777.000,0.0420961,
1776.000,0.0407375,
1775.000,0.0394723,
1774.000,0.0383099,
1773.000,0.0375241,
1772.000,0.0373449,
1771.000,0.0373546,
1770.000,0.0368979,
1769.000,0.0361181,
1768.000,0.0357814,
1767.000,0.036144,
1766.000,0.036611,
1765.000,0.0366158,
1764.000,0.0363315,
1763.000,0.0361607,
1762.000,0.0360673,
1761.000,0.0357883,
1760.000,0.0353232,
1759.000,0.0349012,
1758.000,0.0346757,
1757.000,0.0345849,
1756.000,0.034514,
1755.000,0.0343409,
1754.000,0.0339208,
1753.000,0.0332668,
1752.000,0.0324591,
1751.000,0.0314841,
1750.000,0.0304079,
1749.000,0.0295983,
1748.000,0.0294131,
1747.000,0.02972,
1746.000,0.0299369,
1745.000,0.0296085,
1744.000,0.0289168,
1743.000,0.0283426,
1742.000,0.0279426,
1741.000,0.0273273,
1740.000,0.0262832,
1739.000,0.0251563,
1738.000,0.024552,
1737.000,0.0247192,
1736.000,0.0253772,
1735.000,0.025972,
1734.000,0.0260482,
1733.000,0.0257762,
1732.000,0.0256816,
1731.000,0.0258596,
1730.000,0.0261075,
1729.000,0.0262032,
1728.000,0.0259514,
1727.000,0.0250789,
1726.000,0.0232012,
1725.000,0.0202342,
1724.000,0.016628,
1723.000,0.01314,
1722.000,0.0102941,
1721.000,0.0081243,
1720.000,0.0064658,
1719.000,0.00526239,
1718.000,0.00454588,
1717.000,0.0041916,
1716.000,0.00375758,
1715.000,0.00296492,
1714.000,0.00225651,
1713.000,0.0023382,
1712.000,0.00328467,
1711.000,0.00432784,
1710.000,0.00473593,
1709.000,0.00466538,
1708.000,0.00462331,
1707.000,0.00459707,
1706.000,0.00449136,
1705.000,0.00475142,
1704.000,0.00580259,
1703.000,0.00760968,
1702.000,0.0106531,
1701.000,0.017054,
1700.000,0.0287298,
1699.000,0.044016,
1698.000,0.0600303,
1697.000,0.0771273,
1696.000,0.0967585,
1695.000,0.116438,
1694.000,0.129803,
1693.000,0.134058,
1692.000,0.132676,
1691.000,0.128985,
1690.000,0.123909,
1689.000,0.117628,
1688.000,0.110369,
1687.000,0.102673,
1686.000,0.0951555,
1685.000,0.0882758,
1684.000,0.0820077,
1683.000,0.0763851,
1682.000,0.0709299,
1681.000,0.0656211,
1680.000,0.0617206,
1679.000,0.0595462,
1678.000,0.0585656,
1677.000,0.0580987,
1676.000,0.0573654,
1675.000,0.0558806,
1674.000,0.0537547,
1673.000,0.0516635,
1672.000,0.0501457,
1671.000,0.0492037,
1670.000,0.0484299,
1669.000,0.0474635,
1668.000,0.0463,
1667.000,0.045183,
1666.000,0.0444172,
1665.000,0.0440475,
1664.000,0.0437019,
1663.000,0.0429149,
1662.000,0.0414958,
1661.000,0.0397587,
1660.000,0.0383843,
1659.000,0.0378475,
1658.000,0.0379262,
1657.000,0.0378593,
1656.000,0.0370603,
1655.000,0.0356852,
1654.000,0.0344666,
1653.000,0.0340516,
1652.000,0.0342095,
1651.000,0.0339776,
1650.000,0.0335587,
1649.000,0.0335902,
1648.000,0.0335543,
1647.000,0.0331251,
1646.000,0.032544,
1645.000,0.0321325,
1644.000,0.0320431,
1643.000,0.0321971,
1642.000,0.0322786,
1641.000,0.032059,
1640.000,0.0316833,
1639.000,0.0312156,
1638.000,0.0306018,
1637.000,0.0299814,
1636.000,0.0298003,
1635.000,0.0303574,
1634.000,0.0310796,
1633.000,0.0311397,
1632.000,0.0305295,
1631.000,0.0295578,
1630.000,0.0284502,
1629.000,0.0275596,
1628.000,0.027186,
1627.000,0.0274111,
1626.000,0.028129,
1625.000,0.0292018,
1624.000,0.0304705,
1623.000,0.0315227,
1622.000,0.0317073,
1621.000,0.0306969,
1620.000,0.02895,
1619.000,0.0273128,
1618.000,0.0263604,
1617.000,0.026156,
1616.000,0.0263632,
1615.000,0.0265983,
1614.000,0.0267076,
1613.000,0.0267027,
1612.000,0.0265265,
1611.000,0.0261685,
1610.000,0.0258796,
1609.000,0.0259761,
1608.000,0.0265174,
1607.000,0.0272409,
1606.000,0.0277563,
1605.000,0.0278245,
1604.000,0.027463,
1603.000,0.0268456,
1602.000,0.0262626,
1601.000,0.0259992,
1600.000,0.0260867,
1599.000,0.0262769,
1598.000,0.0262947,
1597.000,0.0260777,
1596.000,0.0257937,
1595.000,0.0256885,
1594.000,0.0258129,
1593.000,0.0258773,
1592.000,0.0255196,
1591.000,0.0247204,
1590.000,0.0239223,
1589.000,0.0236604,
1588.000,0.0240299,
1587.000,0.0246673,
1586.000,0.0252083,
1585.000,0.0255282,
1584.000,0.0255826,
1583.000,0.0252524,
1582.000,0.0245076,
1581.000,0.0236092,
1580.000,0.0229265,
1579.000,0.0226164,
1578.000,0.0226202,
1577.000,0.0228613,
1576.000,0.0232882,
1575.000,0.0237418,
1574.000,0.0239662,
1573.000,0.0239653,
1572.000,0.0239245,
1571.000,0.0238993,
1570.000,0.0240385,
1569.000,0.0245336,
1568.000,0.0251023,
1567.000,0.0251348,
1566.000,0.0245508,
1565.000,0.0239248,
1564.000,0.0238543,
1563.000,0.0243279,
1562.000,0.024875,
1561.000,0.0252249,
1560.000,0.0254821,
1559.000,0.0253284,
1558.000,0.0243079,
1557.000,0.0223526,
1556.000,0.0204797,
1555.000,0.0204389,
1554.000,0.022371,
1553.000,0.025082,
1552.000,0.0273382,
1551.000,0.0286339,
1550.000,0.0292628,
1549.000,0.0295268,
1548.000,0.0293629,
1547.000,0.0285113,
1546.000,0.0269404,
1545.000,0.0250062,
1544.000,0.023341,
1543.000,0.0224794,
1542.000,0.0225554,
1541.000,0.02353,
1540.000,0.0251846,
1539.000,0.0265921,
1538.000,0.0265798,
1537.000,0.0255345,
1536.000,0.0248395,
1535.000,0.0249795,
1534.000,0.0256364,
1533.000,0.0261736,
1532.000,0.0261147,
1531.000,0.0256423,
1530.000,0.0253556,
1529.000,0.0255465,
1528.000,0.0259807,
1527.000,0.0261466,
1526.000,0.0255269,
1525.000,0.0241296,
1524.000,0.0226246,
1523.000,0.0217433,
1522.000,0.021703,
1521.000,0.0222128,
1520.000,0.0228781,
1519.000,0.0234744,
1518.000,0.0240532,
1517.000,0.0248119,
1516.000,0.0258964,
1515.000,0.0272143,
1514.000,0.0283327,
1513.000,0.0289439,
1512.000,0.029117,
1511.000,0.0291174,
1510.000,0.0291516,
1509.000,0.0291666,
1508.000,0.0291262,
1507.000,0.0292723,
1506.000,0.0299193,
1505.000,0.0302901,
1504.000,0.0299449,
1503.000,0.0299645,
1502.000,0.0304882,
1501.000,0.0308502,
1500.000,0.0307839,
1499.000,0.0304406,
1498.000,0.030326,
1497.000,0.0306528,
1496.000,0.0309647,
1495.000,0.030765,
1494.000,0.0302245,
1493.000,0.0298023,
1492.000,0.0296584,
1491.000,0.0296538,
1490.000,0.0297143,
1489.000,0.029992,
1488.000,0.0304665,
1487.000,0.0309266,
1486.000,0.0314065,
1485.000,0.0319999,
1484.000,0.0325836,
1483.000,0.032908,
1482.000,0.0329536,
1481.000,0.0331381,
1480.000,0.0339157,
1479.000,0.0352227,
1478.000,0.0364252,
1477.000,0.0369562,
1476.000,0.0368056,
1475.000,0.0364141,
1474.000,0.036262,
1473.000,0.0364989,
1472.000,0.0368118,
1471.000,0.0366622,
1470.000,0.0360178,
1469.000,0.0356037,
1468.000,0.0360375,
1467.000,0.0372496,
1466.000,0.038678,
1465.000,0.0396319,
1464.000,0.0397479,
1463.000,0.0391377,
1462.000,0.0383266,
1461.000,0.0379849,
1460.000,0.0384643,
1459.000,0.0397277,
1458.000,0.0415188,
1457.000,0.0433655,
1456.000,0.0443664,
1455.000,0.0435729,
1454.000,0.0412914,
1453.000,0.0385286,
1452.000,0.0358232,
1451.000,0.033561,
1450.000,0.0318751,
1449.000,0.0305793,
1448.000,0.0295122,
1447.000,0.0286414,
1446.000,0.0280395,
1445.000,0.0278337,
1444.000,0.0280661,
1443.000,0.0286351,
1442.000,0.0294594,
1441.000,0.0306873,
1440.000,0.0326671,
1439.000,0.0354261,
1438.000,0.0383471,
1437.000,0.040433,
1436.000,0.0410436,
1435.000,0.0403975,
1434.000,0.0392014,
1433.000,0.0380789,
1432.000,0.0373307,
1431.000,0.0370297,
1430.000,0.0371,
1429.000,0.0372576,
1428.000,0.0371157,
1427.000,0.0364784,
1426.000,0.0354719,
1425.000,0.0344784,
1424.000,0.0339499,
1423.000,0.0340999,
1422.000,0.0347555,
1421.000,0.0355428,
1420.000,0.0360843,
1419.000,0.0360422,
1418.000,0.03545,
1417.000,0.0347644,
1416.000,0.0344972,
1415.000,0.0348657,
1414.000,0.0356189,
1413.000,0.0365208,
1412.000,0.0377805,
1411.000,0.0395949,
1410.000,0.0415951,
1409.000,0.0431506,
1408.000,0.0441036,
1407.000,0.0449421,
1406.000,0.0462066,
1405.000,0.0479787,
1404.000,0.0499427,
1403.000,0.0516252,
1402.000,0.0526579,
1401.000,0.053006,
1400.000,0.0530719,
1399.000,0.0536223,
1398.000,0.0552274,
1397.000,0.057569,
1396.000,0.0597404,
1395.000,0.0611569,
1394.000,0.0619338,
1393.000,0.0626477,
1392.000,0.0637727,
1391.000,0.0653659,
1390.000,0.0671753,
1389.000,0.0689598,
1388.000,0.070717,
1387.000,0.0725391,
1386.000,0.0743582,
1385.000,0.07605,
1384.000,0.0778267,
1383.000,0.0800057,
1382.000,0.0824613,
1381.000,0.0847961,
1380.000,0.0868802,
1379.000,0.0889356,
1378.000,0.0911855,
1377.000,0.0937117,
1376.000,0.0966619,
1375.000,0.100264,
1374.000,0.104444,
1373.000,0.10864,
1372.000,0.112265,
1371.000,0.115535,
1370.000,0.11914,
1369.000,0.123094,
1368.000,0.126604,
1367.000,0.129048,
1366.000,0.130943,
1365.000,0.133527,
1364.000,0.137431,
1363.000,0.14221,
1362.000,0.147051,
1361.000,0.151495,
1360.000,0.155699,
1359.000,0.160086,
1358.000,0.164737,
1357.000,0.169503,
1356.000,0.174295,
1355.000,0.178611,
1354.000,0.18102,
1353.000,0.17957,
1352.000,0.172964,
1351.000,0.16142,
1350.000,0.146455,
1349.000,0.130361,
1348.000,0.115645,
1347.000,0.104428,
1346.000,0.0980323,
1345.000,0.0966006,
1344.000,0.0988825,
1343.000,0.102427,
1342.000,0.104421,
1341.000,0.102918,
1340.000,0.0978486,
1339.000,0.0911369,
1338.000,0.085687,
1337.000,0.0836903,
1336.000,0.0856098,
1335.000,0.0908198,
1334.000,0.0987148,
1333.000,0.108982,
1332.000,0.121146,
1331.000,0.1342,
1330.000,0.146897,
1329.000,0.158405,
1328.000,0.168543,
1327.000,0.177517,
1326.000,0.185468,
1325.000,0.192123,
1324.000,0.196689,
1323.000,0.198162,
1322.000,0.195937,
1321.000,0.18996,
1320.000,0.180215,
1319.000,0.166697,
1318.000,0.150146,
1317.000,0.132216,
1316.000,0.114547,
1315.000,0.0979782,
1314.000,0.0830199,
1313.000,0.0706188,
1312.000,0.0618583,
1311.000,0.0570464,
1310.000,0.0558317,
1309.000,0.0580956,
1308.000,0.0640231,
1307.000,0.073284,
1306.000,0.0845261,
1305.000,0.0962396,
1304.000,0.107907,
1303.000,0.12004,
1302.000,0.133394,
1301.000,0.148276,
1300.000,0.164358,
1299.000,0.18083,
1298.000,0.196976,
1297.000,0.212753,
1296.000,0.228551,
1295.000,0.244502,
1294.000,0.260464,
1293.000,0.276545,
1292.000,0.292943,
1291.000,0.309215,
1290.000,0.32426,
1289.000,0.337204,
1288.000,0.347909,
1287.000,0.356348,
1286.000,0.362061,
1285.000,0.364478,
1284.000,0.363346,
1283.000,0.35881,
1282.000,0.351351,
1281.000,0.341829,
1280.000,0.331223,
1279.000,0.320095,
1278.000,0.308721,
1277.000,0.297783,
1276.000,0.288502,
1275.000,0.281805,
1274.000,0.277567,
1273.000,0.274851,
1272.000,0.272586,
1271.000,0.269761,
1270.000,0.265398,
1269.000,0.258999,
1268.000,0.251071,
1267.000,0.243059,
1266.000,0.23684,
1265.000,0.234184,
1264.000,0.236083,
1263.000,0.24187,
1262.000,0.24916,
1261.000,0.255261,
1260.000,0.25884,
1259.000,0.26005,
1258.000,0.259216,
1257.000,0.25599,
1256.000,0.249973,
1255.000,0.241694,
1254.000,0.232432,
1253.000,0.223217,
1252.000,0.214258,
1251.000,0.205313,
1250.000,0.196334,
1249.000,0.187581,
1248.000,0.179268,
1247.000,0.171341,
1246.000,0.163617,
1245.000,0.155949,
1244.000,0.148105,
1243.000,0.13968,
1242.000,0.130488,
1241.000,0.121149,
1240.000,0.112827,
1239.000,0.106081,
1238.000,0.100226,
1237.000,0.0941502,
1236.000,0.0876443,
1235.000,0.0814678,
1234.000,0.0760927,
1233.000,0.0709716,
1232.000,0.0653148,
1231.000,0.0591133,
1230.000,0.053053,
1229.000,0.0477827,
1228.000,0.0434147,
1227.000,0.0395386,
1226.000,0.0357009,
1225.000,0.0318638,
1224.000,0.0286387,
1223.000,0.0270982,
1222.000,0.0279958,
1221.000,0.0313771,
1220.000,0.0371216,
1219.000,0.0455233,
1218.000,0.0568854,
1217.000,0.0706164,
1216.000,0.0851659,
1215.000,0.0988093,
1214.000,0.110408,
1213.000,0.119496,
1212.000,0.125978,
1211.000,0.129912,
1210.000,0.131554,
1209.000,0.131442,
1208.000,0.130242,
1207.000,0.128464,
1206.000,0.126128,
1205.000,0.122922,
1204.000,0.118766,
1203.000,0.114179,
1202.000,0.110005,
1201.000,0.106627,
1200.000,0.103508,
1199.000,0.0996499,
1198.000,0.0945752,
1197.000,0.0888862,
1196.000,0.0838415,
1195.000,0.0802454,
1194.000,0.0777602,
1193.000,0.0754905,
1192.000,0.0731061,
1191.000,0.0710194,
1190.000,0.0694595,
1189.000,0.0678511,
1188.000,0.06541,
1187.000,0.0621301,
1186.000,0.0588449,
1185.000,0.0563165,
1184.000,0.0546613,
1183.000,0.0535173,
1182.000,0.0522958,
1181.000,0.050383,
1180.000,0.0475052,
1179.000,0.0440331,
1178.000,0.0408717,
1177.000,0.0388108,
1176.000,0.0378995,
1175.000,0.0375694,
1174.000,0.0371397,
1173.000,0.0363207,
1172.000,0.0353575,
1171.000,0.0346466,
1170.000,0.0343488,
1169.000,0.0342883,
1168.000,0.0342627,
1167.000,0.0343085,
1166.000,0.0345352,
1165.000,0.0349582,
1164.000,0.0354981,
1163.000,0.0358839,
1162.000,0.0356947,
1161.000,0.0347414,
1160.000,0.0333964,
1159.000,0.0322971,
1158.000,0.0314366,
1157.000,0.0299033,
1156.000,0.0269648,
1155.000,0.0231072,
1154.000,0.0196892,
1153.000,0.0179017,
1152.000,0.018036,
1151.000,0.0194968,
1150.000,0.0213723,
1149.000,0.0225896,
1148.000,0.0223652,
1147.000,0.0208077,
1146.000,0.018582,
1145.000,0.0163184,
1144.000,0.0145197,
1143.000,0.0136137,
1142.000,0.0136698,
1141.000,0.0141037,
1140.000,0.0141211,
1139.000,0.0135423,
1138.000,0.0127902,
1137.000,0.0122237,
1136.000,0.0119847,
1135.000,0.0123267,
1134.000,0.0136627,
1133.000,0.0160722,
1132.000,0.0185284,
1131.000,0.0196858,
1130.000,0.0193469,
1129.000,0.0184403,
1128.000,0.0177545,
1127.000,0.0170172,
1126.000,0.0156432,
1125.000,0.0137772,
1124.000,0.0116943,
1123.000,0.0100127,
1122.000,0.0109105,
1121.000,0.0136318,
1120.000,0.0152275,
1119.000,0.0151317,
1118.000,0.0140943,
1117.000,0.0128227,
1116.000,0.0119428,
1115.000,0.0119491,
1114.000,0.0126756,
1113.000,0.0131784,
1112.000,0.0125792,
1111.000,0.0113795,
1110.000,0.0111696,
1109.000,0.0125228,
1108.000,0.014026,
1107.000,0.014003,
1106.000,0.0124404,
1105.000,0.0107147,
1104.000,0.00990045,
1103.000,0.00986416,
1102.000,0.00990107,
1101.000,0.00940801,
1100.000,0.00803179,
1099.000,0.00659015,
1098.000,0.00654026,
1097.000,0.00824001,
1096.000,0.0107423,
1095.000,0.0126006,
1094.000,0.0130018,
1093.000,0.0118309,
1092.000,0.00965328,
1091.000,0.00750836,
1090.000,0.00616029,
1089.000,0.00571393,
1088.000,0.00589801,
1087.000,0.00631976,
1086.000,0.00643887,
1085.000,0.00579966,
1084.000,0.00466398,
1083.000,0.00377741,
1082.000,0.00350097,
1081.000,0.00444489,
1080.000,0.00596803,
1079.000,0.00686836,
1078.000,0.00717774,
1077.000,0.00701629,
1076.000,0.00596867,
1075.000,0.00441418,
1074.000,0.00418065,
1073.000,0.00542285,
1072.000,0.00677138,
1071.000,0.0077703,
1070.000,0.00853706,
1069.000,0.0093443,
1068.000,0.00997778,
1067.000,0.0100804,
1066.000,0.00948916,
1065.000,0.00838194,
1064.000,0.00739628,
1063.000,0.00706207,
1062.000,0.00728541,
1061.000,0.00790435,
1060.000,0.00908158,
1059.000,0.0106514,
1058.000,0.0121768,
1057.000,0.0129336,
1056.000,0.0119685,
1055.000,0.0100332,
1054.000,0.00907112,
1053.000,0.00851196,
1052.000,0.00743696,
1051.000,0.00754729,
1050.000,0.0097035,
1049.000,0.0125464,
1048.000,0.0141689,
1047.000,0.0132669,
1046.000,0.0105879,
1045.000,0.00768878,
1044.000,0.00498429,
1043.000,0.00243202,
1042.000,0.000782634,
1041.000,0.000971005,
1040.000,0.00211939,
1039.000,0.00386226,
1038.000,0.00512952,
1037.000,0.00550354,
1036.000,0.00600626,
1035.000,0.00637939,
1034.000,0.00524852,
1033.000,0.00308511,
1032.000,0.00255716,
1031.000,0.00321559,
1030.000,0.00336885,
1029.000,0.00380372,
1028.000,0.00433705,
1027.000,0.004666,
1026.000,0.00477589,
1025.000,0.00480083,
1024.000,0.00517243,
1023.000,0.00565764,
1022.000,0.00547148,
1021.000,0.0041999,
1020.000,0.00220766,
1019.000,0.000697145,
1018.000,0.00122411,
1017.000,0.0017863,
1016.000,0.00308924,
1015.000,0.0050406,
1014.000,0.00645094,
1013.000,0.00659986,
1012.000,0.00611463,
1011.000,0.00643053,
1010.000,0.00707837,
1009.000,0.006095,
1008.000,0.00278558,
1007.000,0.00163357,
1006.000,0.00421737,
1005.000,0.00427411,
1004.000,0.00278355,
1003.000,0.00201023,
1002.000,0.0028286,
1001.000,0.00382811,
1000.000,0.00412683,
999.000,0.00324696,
998.000,0.00226996,
997.000,0.00231209,
996.000,0.00263861,
995.000,0.00301645,
994.000,0.00336319,
993.000,0.00366437,
992.000,0.00351992,
991.000,0.00272524,
990.000,0.00236916,
989.000,0.00335874,
988.000,0.00353038,
987.000,0.00289206,
986.000,0.00318916,
985.000,0.0033724,
984.000,0.00279842,
983.000,0.00231204,
982.000,0.00296375,
981.000,0.00407297,
980.000,0.0047333,
979.000,0.00518723,
978.000,0.00589237,
977.000,0.00650339,
976.000,0.00611166,
975.000,0.00419171,
974.000,0.00156861,
973.000,0.0017849,
972.000,0.00312663,
971.000,0.00396518,
970.000,0.00481078,
969.000,0.00438416,
968.000,0.00186189,
967.000,0.00102973,
966.000,0.0024506,
965.000,0.00175369,
964.000,0.00238592,
963.000,0.00466795,
962.000,0.0059725,
961.000,0.0063951,
960.000,0.00638262,
959.000,0.00609507,
958.000,0.00587856,
957.000,0.00558675,
956.000,0.00517195,
955.000,0.00526736,
954.000,0.00563051,
953.000,0.00529389,
952.000,0.00431566,
951.000,0.00410121,
950.000,0.00526379,
949.000,0.00630416,
948.000,0.00588588,
947.000,0.00440984,
946.000,0.00333737,
945.000,0.00288632,
944.000,0.00214684,
943.000,0.00109353,
942.000,0.00155796,
941.000,0.00201504,
940.000,0.00144753,
939.000,0.00244786,
938.000,0.00381421,
937.000,0.00435004,
936.000,0.00505249,
935.000,0.00546713,
934.000,0.00439159,
933.000,0.00290339,
932.000,0.00227793,
931.000,0.00135933,
930.000,0.00291705,
929.000,0.00464808,
928.000,0.00444177,
927.000,0.00322804,
926.000,0.00272616,
925.000,0.00398385,
924.000,0.00652686,
923.000,0.00862581,
922.000,0.00881785,
921.000,0.0076601,
920.000,0.0072281,
919.000,0.00789496,
918.000,0.00833938,
917.000,0.00787844,
916.000,0.00653068,
915.000,0.00477396,
914.000,0.0043847,
913.000,0.00618014,
912.000,0.00767331,
911.000,0.0077254,
910.000,0.00694986,
909.000,0.00638879,
908.000,0.00648385,
907.000,0.00682971,
906.000,0.00669521,
905.000,0.00640362,
904.000,0.0072589,
903.000,0.00770625,
902.000,0.00620988,
901.000,0.00468063,
900.000,0.00418422,
899.000,0.00254678,
898.000,0.000484899,
897.000,0.00104695,
896.000,0.00258235,
895.000,0.00403393,
894.000,0.00280074,
893.000,0.00212343,
892.000,0.00708678,
891.000,0.011381,
890.000,0.0133137,
889.000,0.0127066,
888.000,0.0102689,
887.000,0.00777682,
886.000,0.00643156,
885.000,0.00605622,
884.000,0.00607939,
883.000,0.00610827,
882.000,0.00556868,
881.000,0.00547566,
880.000,0.00671387,
879.000,0.00829699,
878.000,0.00990276,
877.000,0.0101996,
876.000,0.007918,
875.000,0.00384204,
874.000,0.00094333,
873.000,0.0027648,
872.000,0.00448649,
871.000,0.00448576,
870.000,0.00289069,
869.000,0.00167572,
868.000,0.00282203,
867.000,0.00361752,
866.000,0.0037837,
865.000,0.00366142,
864.000,0.00251972,
863.000,0.00189123,
862.000,0.00393323,
861.000,0.00434999,
860.000,0.00188426,
859.000,0.00123873,
858.000,0.00281656,
857.000,0.00157963,
856.000,0.00142369,
855.000,0.00336014,
854.000,0.00379091,
853.000,0.00317307,
852.000,0.00227946,
851.000,0.00185754,
850.000,0.00241357,
849.000,0.00393441,
848.000,0.00513508,
847.000,0.00471431,
846.000,0.00359573,
845.000,0.00401188,
844.000,0.00568592,
843.000,0.00741961,
842.000,0.00872048,
841.000,0.00942671,
840.000,0.00959379,
839.000,0.00922462,
838.000,0.00840846,
837.000,0.00715365,
836.000,0.00611469,
835.000,0.00584429,
834.000,0.00558333,
833.000,0.0036537,
832.000,0.0023906,
831.000,0.00660336,
830.000,0.0107865,
829.000,0.0123718,
828.000,0.0118445,
827.000,0.0105808,
826.000,0.00937664,
825.000,0.00759697,
824.000,0.0059279,
823.000,0.00580626,
822.000,0.00667468,
821.000,0.00672812,
820.000,0.00568786,
819.000,0.00525848,
818.000,0.00590675,
817.000,0.00593778,
816.000,0.00525723,
815.000,0.00497077,
814.000,0.00530068,
813.000,0.00550986,
812.000,0.00509997,
811.000,0.00416924,
810.000,0.0038343,
809.000,0.00449327,
808.000,0.00552256,
807.000,0.00458737,
806.000,0.00242014,
805.000,0.00593397,
804.000,0.0105209,
803.000,0.0120482,
802.000,0.0111526,
801.000,0.00924766,
800.000,0.00743193,
799.000,0.0048681,
798.000,0.00210586,
797.000,0.00184179,
796.000,0.0027969,
795.000,0.00283831,
794.000,0.00251265,
793.000,0.00216843,
792.000,0.00215616,
791.000,0.00262195,
790.000,0.0028021,
789.000,0.00271282,
788.000,0.00274042,
787.000,0.00294144,
786.000,0.00266625,
785.000,0.00119214,
784.000,0.00133908,
783.000,0.00258346,
782.000,0.00285096,
781.000,0.00218341,
780.000,0.000913144,
779.000,0.0032495,
778.000,0.00683333,
777.000,0.00815472,
776.000,0.0071793,
775.000,0.00543376,
774.000,0.00473631,
773.000,0.00473999,
772.000,0.00483167,
771.000,0.00553004,
770.000,0.0060432,
769.000,0.00562201,
768.000,0.00494072,
767.000,0.00424424,
766.000,0.0027635,
765.000,0.00170561,
764.000,0.00402429,
763.000,0.00713099,
762.000,0.00844852,
761.000,0.00852609,
760.000,0.00871461,
759.000,0.00857816,
758.000,0.00738851,
757.000,0.00608007,
756.000,0.00500844,
755.000,0.00472627,
754.000,0.00408994,
753.000,0.00326722,
752.000,0.00522793,
751.000,0.00679859,
750.000,0.00537898,
749.000,0.0031627,
748.000,0.00244576,
747.000,0.00189877,
746.000,0.000662243,
745.000,0.000579362,
744.000,0.00180129,
743.000,0.0036184,
742.000,0.0060864,
741.000,0.00765019,
740.000,0.00717426,
739.000,0.00621834,
738.000,0.00633672,
737.000,0.00623094,
736.000,0.00544678,
735.000,0.00565436,
734.000,0.00705706,
733.000,0.00853512,
732.000,0.00929071,
731.000,0.00887542,
730.000,0.00753571,
729.000,0.0066887,
728.000,0.00719527,
727.000,0.0080369,
726.000,0.00810854,
725.000,0.00721215,
724.000,0.00530501,
723.000,0.00384857,
722.000,0.00452977,
721.000,0.0060977,
720.000,0.00772882,
719.000,0.0104695,
718.000,0.0123524,
717.000,0.0117052,
716.000,0.00650361,
715.000,0.0024187,
714.000,0.00719896,
713.000,0.0104024,
712.000,0.0108704,
711.000,0.0106107,
710.000,0.00795015,
709.000,0.0041259,
708.000,0.00366037,
707.000,0.00720443,
706.000,0.0105042,
705.000,0.0135128,
704.000,0.0145418,
703.000,0.0124286,
702.000,0.00679441,
701.000,0.00137499,
700.000,0.000973476,
699.000,0.00319974,
698.000,0.00620284,
697.000,0.0071613,
696.000,0.00380208,
695.000,0.00093528,
694.000,0.00424064,
693.000,0.0076609,
692.000,0.0107905,
691.000,0.0132097,
690.000,0.0122969,
689.000,0.00974333,
688.000,0.00805082,
687.000,0.00951946,
686.000,0.00837486,
685.000,0.00344,
684.000,0.00555965,
683.000,0.0117877,
682.000,0.0142339,
681.000,0.0131153,
680.000,0.00992701,
679.000,0.00763354,
678.000,0.00708912,
677.000,0.00593596,
676.000,0.00449085,
675.000,0.00236756,
674.000,0.000765676,
673.000,0.00209724,
672.000,0.00269808,
671.000,0.00428114,
670.000,0.00669395,
669.000,0.0094365,
668.000,0.013659,
667.000,0.0155177,
666.000,0.0129875,
665.000,0.00911157,
664.000,0.00774716,
663.000,0.00762547,
662.000,0.00555124,
661.000,0.00426239,
660.000,0.00411244,
659.000,0.00200481,
658.000,0.00355738,
657.000,0.00931339,
656.000,0.0121504,
655.000,0.0114348,
654.000,0.0063723,
653.000,0.0017138,
652.000,0.00423304,
651.000,0.0050401,
650.000,0.00346702,
649.000,0.00204644,
648.000,0.0011535,
647.000,0.00383616,
646.000,0.00629292,
645.000,0.00852538,
644.000,0.0124469,
643.000,0.0173131,
642.000,0.0208276,
641.000,0.0197039,
640.000,0.0139073,
639.000,0.00752258,
638.000,0.00474336,
637.000,0.00693524,
636.000,0.0105533,
635.000,0.0107412,
634.000,0.00879537,
633.000,0.010015,
632.000,0.0146469,
631.000,0.0175205,
630.000,0.0163058,
629.000,0.0123698,
628.000,0.00841299,
627.000,0.00475218,
626.000,0.00197468,
625.000,0.00253858,
624.000,0.00437125,
623.000,0.00631346,
622.000,0.00895557,
621.000,0.0117901,
620.000,0.013623,
619.000,0.0124343,
618.000,0.00810852,
617.000,0.00583405,
616.000,0.00868715,
615.000,0.00999852,
614.000,0.0091565,
613.000,0.00544825,
612.000,0.00153431,
611.000,0.00541885,
610.000,0.00744412,
609.000,0.00617668,
608.000,0.00733077,
607.000,0.00853177,
606.000,0.00589929,
605.000,0.00258218,
604.000,0.00513202,
603.000,0.00821385,
602.000,0.00893195,
601.000,0.0088516,
600.000,0.0100409,
599.000,0.0130627,
598.000,0.0160142,
597.000,0.0188472,
596.000,0.0214318,
595.000,0.0229195,
594.000,0.0221648,
593.000,0.0196413,
592.000,0.0182633,
591.000,0.0195962,
590.000,0.0208242,
589.000,0.0182352,
588.000,0.013018,
587.000,0.0110858,
586.000,0.0144674,
585.000,0.0207035,
584.000,0.0252457,
583.000,0.023689,
582.000,0.0160111,
581.000,0.00932982,
580.000,0.00873149,
579.000,0.0089679,
578.000,0.00933488,
577.000,0.0123152,
576.000,0.0164946,
575.000,0.0194805,
574.000,0.0181587,
573.000,0.0135693,
572.000,0.00997852,
571.000,0.010749,
570.000,0.0111506,
569.000,0.00752831,
568.000,0.00943296,
567.000,0.016169,
566.000,0.0183887,
565.000,0.0167794,
564.000,0.0136291,
563.000,0.0096442,
562.000,0.00591226,
561.000,0.00353623,
560.000,0.00412542,
559.000,0.00791088,
558.000,0.0107166,
557.000,0.011845,
556.000,0.0139343,
555.000,0.016047,
554.000,0.0124902,
553.000,0.00770359,
552.000,0.0117135,
551.000,0.0151751,
550.000,0.0132293,
549.000,0.00850637,
548.000,0.00355699,
547.000,0.00412915,
546.000,0.00646,
545.000,0.00726633,
544.000,0.00913239,
543.000,0.0133904,
542.000,0.0177197,
541.000,0.0183054,
540.000,0.0154893,
539.000,0.0134406,
538.000,0.0122005,
537.000,0.0104753,
536.000,0.0114459,
535.000,0.0151493,
534.000,0.0182413,
533.000,0.0200553,
532.000,0.0214774,
531.000,0.0238022,
530.000,0.0272785,
529.000,0.0291276,
528.000,0.0260795,
527.000,0.0180934,
526.000,0.0125147,
525.000,0.0115389,
524.000,0.0114857,
523.000,0.0136114,
522.000,0.0158272,
521.000,0.0134582,
520.000,0.0063874,
519.000,0.00907915,
518.000,0.0251824,
517.000,0.0384502,
516.000,0.0424057,
515.000,0.0352782,
514.000,0.0238936,
513.000,0.0204131,
512.000,0.0210954,
511.000,0.0144888,
510.000,0.0139435,
509.000,0.0326365,
508.000,0.0481215,
507.000,0.0495754,
506.000,0.0351256,
505.000,0.022732,
504.000,0.0277533,
503.000,0.0333647,
502.000,0.0227984,
501.000,0.00633947,
500.000,0.015076,
499.000,0.0288379,
498.000,0.0313495,
497.000,0.0294248,
496.000,0.0226927,
495.000,0.0137422,
494.000,0.00565086,
493.000,0.00611098,
492.000,0.0131234,
491.000,0.0148575,
490.000,0.0113563,
489.000,0.0153631,
488.000,0.0217819,
487.000,0.0188441,
486.000,0.0159324,
485.000,0.019179,
484.000,0.0182026,
483.000,0.00843251,
482.000,0.00169838,
481.000,0.00849365,
480.000,0.016423,
479.000,0.0222238,
478.000,0.0219998,
477.000,0.0142214,
476.000,0.0126935,
475.000,0.0175748,
474.000,0.025294,
473.000,0.0348585,
472.000,0.0341946,
471.000,0.0293734,
470.000,0.0397202,
469.000,0.0471941,
468.000,0.0441108,
467.000,0.0474149,
466.000,0.0494618,
465.000,0.0382306,
464.000,0.0268532,
463.000,0.0269552,
462.000,0.0270365,
461.000,0.0208716,
460.000,0.0150937,
459.000,0.0136796,
458.000,0.0140309,
457.000,0.0158952,
456.000,0.0199503,
455.000,0.0190234,
454.000,0.0148067,
453.000,0.0155096,
452.000,0.0141997,
451.000,0.0117638,
450.000,0.0214843,
449.000,0.0336417,
448.000,0.04149,
447.000,0.0354021,
446.000,0.0173624,
445.000,0.0256915,
444.000,0.0502394,
443.000,0.0607567,
442.000,0.0562282,
441.000,0.041662,
440.000,0.0260148,
439.000,0.0237468,
438.000,0.0177719,
437.000,0.00750889,
436.000,0.0225355,
435.000,0.0352391,
434.000,0.0316739,
433.000,0.0351644,
432.000,0.059777,
431.000,0.0795677,
430.000,0.0735669,
429.000,0.0427954,
428.000,0.0215647,
427.000,0.0367706,
426.000,0.0349723,
425.000,0.0292682,
424.000,0.0538076,
423.000,0.0685693,
422.000,0.0646913,
421.000,0.077511,
420.000,0.110364,
419.000,0.11768,
418.000,0.0930765,
417.000,0.0799143,
416.000,0.0758135,
415.000,0.0530498,
414.000,0.0237944,
413.000,0.0148493,
412.000,0.0271048,
411.000,0.0469933,
410.000,0.0684452,
409.000,0.0831278,
408.000,0.0909839,
407.000,0.102997,
406.000,0.110587,
405.000,0.0947779,
404.000,0.0723608,
403.000,0.0486084,
402.000,0.0331883,
401.000,0.0617205,
400.000,0.106026,
