,d2o 052 By Administrator Date Tuesday. December 14 2021,
Time,14:36:00,
Wavenumbers [1/cm],Transmittance %,
7000.000,5.00242,
6999.000,5.0222,
6998.000,5.03656,
6997.000,5.04899,
6996.000,5.06387,
6995.000,5.08007,
6994.000,5.09424,
6993.000,5.10858,
6992.000,5.13008,
6991.000,5.1604,
6990.000,5.19221,
6989.000,5.21799,
6988.000,5.23796,
6987.000,5.25664,
6986.000,5.27528,
6985.000,5.29142,
6984.000,5.3043,
6983.000,5.31685,
6982.000,5.33241,
6981.000,5.35272,
6980.000,5.37814,
6979.000,5.40699,
6978.000,5.43545,
6977.000,5.46108,
6976.000,5.48666,
6975.000,5.5172,
6974.000,5.55247,
6973.000,5.58566,
6972.000,5.61076,
6971.000,5.6294,
6970.000,5.6483,
6969.000,5.6707,
6968.000,5.69307,
6967.000,5.71109,
6966.000,5.72607,
6965.000,5.74389,
6964.000,5.76838,
6963.000,5.79746,
6962.000,5.82683,
6961.000,5.85588,
6960.000,5.88766,
6959.000,5.92344,
6958.000,5.95982,
6957.000,5.99199,
6956.000,6.01856,
6955.000,6.04226,
6954.000,6.0664,
6953.000,6.09237,
6952.000,6.12037,
6951.000,6.1507,
6950.000,6.18345,
6949.000,6.21763,
6948.000,6.25138,
6947.000,6.28332,
6946.000,6.31386,
6945.000,6.34465,
6944.000,6.3771,
6943.000,6.41162,
6942.000,6.44783,
6941.000,6.48457,
6940.000,6.52008,
6939.000,6.55325,
6938.000,6.58543,
6937.000,6.61946,
6936.000,6.65605,
6935.000,6.69254,
6934.000,6.72624,
6933.000,6.75782,
6932.000,6.79033,
6931.000,6.82552,
6930.000,6.86295,
6929.000,6.90178,
6928.000,6.94151,
6927.000,6.98158,
6926.000,7.02152,
6925.000,7.06093,
6924.000,7.09845,
6923.000,7.13224,
6922.000,7.16321,
6921.000,7.19567,
6920.000,7.23229,
6919.000,7.2708,
6918.000,7.30872,
6917.000,7.34873,
6916.000,7.39515,
6915.000,7.44641,
6914.000,7.49627,
6913.000,7.5427,
6912.000,7.58945,
6911.000,7.63809,
6910.000,7.68476,
6909.000,7.72666,
6908.000,7.767,
6907.000,7.81024,
6906.000,7.85585,
6905.000,7.89998,
6904.000,7.94075,
6903.000,7.97899,
6902.000,8.01658,
6901.000,8.05603,
6900.000,8.09931,
6899.000,8.14515,
6898.000,8.1901,
6897.000,8.23393,
6896.000,8.28043,
6895.000,8.33075,
6894.000,8.38033,
6893.000,8.42519,
6892.000,8.46801,
6891.000,8.51455,
6890.000,8.56625,
6889.000,8.61992,
6888.000,8.67326,
6887.000,8.72673,
6886.000,8.78077,
6885.000,8.83447,
6884.000,8.88653,
6883.000,8.93612,
6882.000,8.9833,
6881.000,9.02934,
6880.000,9.07539,
6879.000,9.12051,
6878.000,9.16364,
6877.000,9.20831,
6876.000,9.26145,
6875.000,9.32548,
6874.000,9.39445,
6873.000,9.45978,
6872.000,9.51779,
6871.000,9.57002,
6870.000,9.61894,
6869.000,9.66647,
6868.000,9.71454,
6867.000,9.76434,
6866.000,9.81673,
6865.000,9.87363,
6864.000,9.93612,
6863.000,10.0003,
6862.000,10.0586,
6861.000,10.1088,
6860.000,10.1572,
6859.000,10.211,
6858.000,10.2697,
6857.000,10.3298,
6856.000,10.3899,
6855.000,10.4503,
6854.000,10.5089,
6853.000,10.5635,
6852.000,10.6172,
6851.000,10.6741,
6850.000,10.733,
6849.000,10.7889,
6848.000,10.8405,
6847.000,10.8908,
6846.000,10.9424,
6845.000,10.9952,
6844.000,11.049,
6843.000,11.1035,
6842.000,11.1571,
6841.000,11.2083,
6840.000,11.2577,
6839.000,11.3066,
6838.000,11.3548,
6837.000,11.4022,
6836.000,11.4511,
6835.000,11.5031,
6834.000,11.5567,
6833.000,11.6091,
6832.000,11.66,
6831.000,11.7104,
6830.000,11.7591,
6829.000,11.8049,
6828.000,11.8512,
6827.000,11.9025,
6826.000,11.9577,
6825.000,12.0102,
6824.000,12.0556,
6823.000,12.0963,
6822.000,12.1379,
6821.000,12.1822,
6820.000,12.2259,
6819.000,12.2634,
6818.000,12.292,
6817.000,12.3143,
6816.000,12.336,
6815.000,12.3608,
6814.000,12.388,
6813.000,12.4165,
6812.000,12.4476,
6811.000,12.4837,
6810.000,12.5239,
6809.000,12.5638,
6808.000,12.5973,
6807.000,12.6199,
6806.000,12.6314,
6805.000,12.6372,
6804.000,12.6452,
6803.000,12.6579,
6802.000,12.6715,
6801.000,12.6822,
6800.000,12.6905,
6799.000,12.6984,
6798.000,12.7042,
6797.000,12.7059,
6796.000,12.7048,
6795.000,12.7041,
6794.000,12.7048,
6793.000,12.7059,
6792.000,12.7055,
6791.000,12.7011,
6790.000,12.6905,
6789.000,12.6745,
6788.000,12.6574,
6787.000,12.6416,
6786.000,12.6249,
6785.000,12.6049,
6784.000,12.5827,
6783.000,12.5595,
6782.000,12.5338,
6781.000,12.5034,
6780.000,12.4702,
6779.000,12.4388,
6778.000,12.4111,
6777.000,12.386,
6776.000,12.3613,
6775.000,12.3347,
6774.000,12.3038,
6773.000,12.2679,
6772.000,12.2295,
6771.000,12.1909,
6770.000,12.1517,
6769.000,12.1104,
6768.000,12.0671,
6767.000,12.0234,
6766.000,11.9803,
6765.000,11.9378,
6764.000,11.8963,
6763.000,11.8552,
6762.000,11.8121,
6761.000,11.7655,
6760.000,11.7161,
6759.000,11.6654,
6758.000,11.6138,
6757.000,11.5615,
6756.000,11.5087,
6755.000,11.4549,
6754.000,11.3994,
6753.000,11.3435,
6752.000,11.2895,
6751.000,11.236,
6750.000,11.1794,
6749.000,11.1198,
6748.000,11.0621,
6747.000,11.0092,
6746.000,10.9584,
6745.000,10.907,
6744.000,10.8563,
6743.000,10.8066,
6742.000,10.7539,
6741.000,10.6951,
6740.000,10.6337,
6739.000,10.575,
6738.000,10.5192,
6737.000,10.4632,
6736.000,10.4081,
6735.000,10.3574,
6734.000,10.3103,
6733.000,10.2603,
6732.000,10.2037,
6731.000,10.1431,
6730.000,10.0822,
6729.000,10.0215,
6728.000,9.95944,
6727.000,9.89648,
6726.000,9.83552,
6725.000,9.77932,
6724.000,9.729,
6723.000,9.68367,
6722.000,9.64085,
6721.000,9.59773,
6720.000,9.55256,
6719.000,9.50425,
6718.000,9.45126,
6717.000,9.39267,
6716.000,9.33052,
6715.000,9.26927,
6714.000,9.21181,
6713.000,9.15721,
6712.000,9.10257,
6711.000,9.04672,
6710.000,8.99004,
6709.000,8.93334,
6708.000,8.87718,
6707.000,8.822,
6706.000,8.77033,
6705.000,8.72304,
6704.000,8.67701,
6703.000,8.62741,
6702.000,8.57336,
6701.000,8.51884,
6700.000,8.46722,
6699.000,8.41717,
6698.000,8.36555,
6697.000,8.31271,
6696.000,8.26213,
6695.000,8.21567,
6694.000,8.17145,
6693.000,8.12653,
6692.000,8.07999,
6691.000,8.0331,
6690.000,7.98773,
6689.000,7.94414,
6688.000,7.89975,
6687.000,7.85098,
6686.000,7.7978,
6685.000,7.74519,
6684.000,7.69799,
6683.000,7.65598,
6682.000,7.61595,
6681.000,7.57689,
6680.000,7.53963,
6679.000,7.50262,
6678.000,7.46209,
6677.000,7.4168,
6676.000,7.36933,
6675.000,7.32184,
6674.000,7.27374,
6673.000,7.22472,
6672.000,7.17717,
6671.000,7.13349,
6670.000,7.09297,
6669.000,7.05302,
6668.000,7.01238,
6667.000,6.97138,
6666.000,6.92992,
6665.000,6.8868,
6664.000,6.8408,
6663.000,6.79186,
6662.000,6.74128,
6661.000,6.69071,
6660.000,6.64111,
6659.000,6.593,
6658.000,6.54793,
6657.000,6.5082,
6656.000,6.47405,
6655.000,6.44239,
6654.000,6.40967,
6653.000,6.37517,
6652.000,6.34007,
6651.000,6.30452,
6650.000,6.26732,
6649.000,6.22789,
6648.000,6.18661,
6647.000,6.14415,
6646.000,6.10173,
6645.000,6.06125,
6644.000,6.02353,
6643.000,5.98764,
6642.000,5.95333,
6641.000,5.92215,
6640.000,5.89372,
6639.000,5.86306,
6638.000,5.82485,
6637.000,5.77926,
6636.000,5.73063,
6635.000,5.68191,
6634.000,5.63352,
6633.000,5.58668,
6632.000,5.54361,
6631.000,5.50453,
6630.000,5.46772,
6629.000,5.43266,
6628.000,5.40024,
6627.000,5.37013,
6626.000,5.34088,
6625.000,5.31234,
6624.000,5.28472,
6623.000,5.25544,
6622.000,5.22075,
6621.000,5.18132,
6620.000,5.14264,
6619.000,5.10898,
6618.000,5.07998,
6617.000,5.05337,
6616.000,5.02784,
6615.000,5.00199,
6614.000,4.97385,
6613.000,4.94323,
6612.000,4.91241,
6611.000,4.88308,
6610.000,4.85439,
6609.000,4.82475,
6608.000,4.79343,
6607.000,4.75995,
6606.000,4.72372,
6605.000,4.68544,
6604.000,4.64772,
6603.000,4.6136,
6602.000,4.58505,
6601.000,4.56204,
6600.000,4.54147,
6599.000,4.51823,
6598.000,4.48963,
6597.000,4.45836,
6596.000,4.42859,
6595.000,4.40069,
6594.000,4.37264,
6593.000,4.34528,
6592.000,4.32158,
6591.000,4.30119,
6590.000,4.28018,
6589.000,4.25683,
6588.000,4.23351,
6587.000,4.21173,
6586.000,4.18973,
6585.000,4.16626,
6584.000,4.14277,
6583.000,4.12035,
6582.000,4.09833,
6581.000,4.0773,
6580.000,4.05947,
6579.000,4.0441,
6578.000,4.02662,
6577.000,4.00494,
6576.000,3.98304,
6575.000,3.96522,
6574.000,3.94999,
6573.000,3.93324,
6572.000,3.91475,
6571.000,3.89733,
6570.000,3.88087,
6569.000,3.86137,
6568.000,3.83633,
6567.000,3.80853,
6566.000,3.78388,
6565.000,3.76639,
6564.000,3.75523,
6563.000,3.74613,
6562.000,3.73581,
6561.000,3.72504,
6560.000,3.716,
6559.000,3.70701,
6558.000,3.69293,
6557.000,3.67173,
6556.000,3.64778,
6555.000,3.62675,
6554.000,3.60943,
6553.000,3.59323,
6552.000,3.57758,
6551.000,3.56476,
6550.000,3.5558,
6549.000,3.54833,
6548.000,3.53877,
6547.000,3.52547,
6546.000,3.50979,
6545.000,3.49483,
6544.000,3.48304,
6543.000,3.47419,
6542.000,3.46614,
6541.000,3.4574,
6540.000,3.44823,
6539.000,3.43906,
6538.000,3.42962,
6537.000,3.42006,
6536.000,3.41139,
6535.000,3.40398,
6534.000,3.39708,
6533.000,3.39035,
6532.000,3.38413,
6531.000,3.3779,
6530.000,3.37056,
6529.000,3.363,
6528.000,3.358,
6527.000,3.35624,
6526.000,3.35469,
6525.000,3.35049,
6524.000,3.34447,
6523.000,3.33892,
6522.000,3.33385,
6521.000,3.32777,
6520.000,3.3207,
6519.000,3.31369,
6518.000,3.3064,
6517.000,3.29758,
6516.000,3.28791,
6515.000,3.2803,
6514.000,3.27682,
6513.000,3.27656,
6512.000,3.27696,
6511.000,3.27616,
6510.000,3.27372,
6509.000,3.26983,
6508.000,3.26457,
6507.000,3.25838,
6506.000,3.25272,
6505.000,3.24947,
6504.000,3.24908,
6503.000,3.25,
6502.000,3.25048,
6501.000,3.25034,
6500.000,3.25008,
6499.000,3.24959,
6498.000,3.24906,
6497.000,3.2501,
6496.000,3.25391,
6495.000,3.25925,
6494.000,3.26449,
6493.000,3.27054,
6492.000,3.27893,
6491.000,3.28742,
6490.000,3.29145,
6489.000,3.29013,
6488.000,3.28736,
6487.000,3.28648,
6486.000,3.28722,
6485.000,3.28904,
6484.000,3.29351,
6483.000,3.30118,
6482.000,3.30922,
6481.000,3.31461,
6480.000,3.31725,
6479.000,3.31836,
6478.000,3.31841,
6477.000,3.31851,
6476.000,3.32071,
6475.000,3.32465,
6474.000,3.32681,
6473.000,3.32593,
6472.000,3.32673,
6471.000,3.33456,
6470.000,3.34863,
6469.000,3.36359,
6468.000,3.37625,
6467.000,3.38701,
6466.000,3.39618,
6465.000,3.4031,
6464.000,3.40866,
6463.000,3.41507,
6462.000,3.42301,
6461.000,3.43168,
6460.000,3.44149,
6459.000,3.45351,
6458.000,3.46586,
6457.000,3.47445,
6456.000,3.47859,
6455.000,3.4834,
6454.000,3.49424,
6453.000,3.51043,
6452.000,3.52643,
6451.000,3.53876,
6450.000,3.54961,
6449.000,3.56287,
6448.000,3.57808,
6447.000,3.59014,
6446.000,3.5956,
6445.000,3.59738,
6444.000,3.60135,
6443.000,3.60977,
6442.000,3.62061,
6441.000,3.63311,
6440.000,3.64981,
6439.000,3.67195,
6438.000,3.6959,
6437.000,3.71673,
6436.000,3.73317,
6435.000,3.74695,
6434.000,3.75907,
6433.000,3.76958,
6432.000,3.77956,
6431.000,3.79064,
6430.000,3.80347,
6429.000,3.81837,
6428.000,3.83624,
6427.000,3.85677,
6426.000,3.87716,
6425.000,3.89509,
6424.000,3.91176,
6423.000,3.92956,
6422.000,3.94809,
6421.000,3.96545,
6420.000,3.98227,
6419.000,4.00101,
6418.000,4.02146,
6417.000,4.04053,
6416.000,4.05679,
6415.000,4.07228,
6414.000,4.08915,
6413.000,4.10736,
6412.000,4.12648,
6411.000,4.14714,
6410.000,4.1691,
6409.000,4.19049,
6408.000,4.2107,
6407.000,4.23211,
6406.000,4.25696,
6405.000,4.28382,
6404.000,4.309,
6403.000,4.33065,
6402.000,4.34974,
6401.000,4.36778,
6400.000,4.38539,
6399.000,4.40343,
6398.000,4.42369,
6397.000,4.4474,
6396.000,4.47356,
6395.000,4.49966,
6394.000,4.52408,
6393.000,4.54715,
6392.000,4.56992,
6391.000,4.59267,
6390.000,4.61517,
6389.000,4.63785,
6388.000,4.66159,
6387.000,4.68652,
6386.000,4.71213,
6385.000,4.73826,
6384.000,4.76507,
6383.000,4.79195,
6382.000,4.81768,
6381.000,4.84183,
6380.000,4.86493,
6379.000,4.88718,
6378.000,4.90843,
6377.000,4.92976,
6376.000,4.95335,
6375.000,4.98021,
6374.000,5.00914,
6373.000,5.03879,
6372.000,5.06938,
6371.000,5.10173,
6370.000,5.13589,
6369.000,5.1716,
6368.000,5.20857,
6367.000,5.24526,
6366.000,5.27889,
6365.000,5.30785,
6364.000,5.33322,
6363.000,5.35711,
6362.000,5.3809,
6361.000,5.40608,
6360.000,5.43485,
6359.000,5.46788,
6358.000,5.50251,
6357.000,5.53513,
6356.000,5.5653,
6355.000,5.5959,
6354.000,5.62975,
6353.000,5.66699,
6352.000,5.70578,
6351.000,5.74439,
6350.000,5.78215,
6349.000,5.81904,
6348.000,5.85516,
6347.000,5.89081,
6346.000,5.92731,
6345.000,5.96607,
6344.000,6.00616,
6343.000,6.04409,
6342.000,6.07752,
6341.000,6.10853,
6340.000,6.14119,
6339.000,6.177,
6338.000,6.21493,
6337.000,6.25495,
6336.000,6.29787,
6335.000,6.34211,
6334.000,6.38454,
6333.000,6.42544,
6332.000,6.46867,
6331.000,6.51581,
6330.000,6.56379,
6329.000,6.61003,
6328.000,6.65585,
6327.000,6.7025,
6326.000,6.74754,
6325.000,6.78849,
6324.000,6.82746,
6323.000,6.86839,
6322.000,6.91167,
6321.000,6.95482,
6320.000,6.99732,
6319.000,7.04149,
6318.000,7.08908,
6317.000,7.13923,
6316.000,7.18972,
6315.000,7.23879,
6314.000,7.28615,
6313.000,7.33341,
6312.000,7.3825,
6311.000,7.43322,
6310.000,7.48363,
6309.000,7.53341,
6308.000,7.58452,
6307.000,7.63773,
6306.000,7.69103,
6305.000,7.74275,
6304.000,7.79345,
6303.000,7.84338,
6302.000,7.89116,
6301.000,7.93689,
6300.000,7.9837,
6299.000,8.03376,
6298.000,8.08558,
6297.000,8.1378,
6296.000,8.19254,
6295.000,8.25159,
6294.000,8.31178,
6293.000,8.36805,
6292.000,8.41967,
6291.000,8.47019,
6290.000,8.52237,
6289.000,8.57632,
6288.000,8.63164,
6287.000,8.68872,
6286.000,8.74786,
6285.000,8.8088,
6284.000,8.87048,
6283.000,8.9305,
6282.000,8.98649,
6281.000,9.03911,
6280.000,9.09129,
6279.000,9.14355,
6278.000,9.19326,
6277.000,9.24015,
6276.000,9.28871,
6275.000,9.34257,
6274.000,9.39986,
6273.000,9.45746,
6272.000,9.51606,
6271.000,9.57691,
6270.000,9.63651,
6269.000,9.68968,
6268.000,9.73665,
6267.000,9.78233,
6266.000,9.82967,
6265.000,9.8778,
6264.000,9.92596,
6263.000,9.97474,
6262.000,10.0237,
6261.000,10.0714,
6260.000,10.1184,
6259.000,10.1666,
6258.000,10.2162,
6257.000,10.2656,
6256.000,10.3139,
6255.000,10.3612,
6254.000,10.4064,
6253.000,10.4476,
6252.000,10.4851,
6251.000,10.5212,
6250.000,10.5575,
6249.000,10.5936,
6248.000,10.6284,
6247.000,10.6614,
6246.000,10.6916,
6245.000,10.719,
6244.000,10.7444,
6243.000,10.7689,
6242.000,10.7926,
6241.000,10.815,
6240.000,10.8367,
6239.000,10.8576,
6238.000,10.8763,
6237.000,10.8915,
6236.000,10.9034,
6235.000,10.9124,
6234.000,10.918,
6233.000,10.92,
6232.000,10.9204,
6231.000,10.9207,
6230.000,10.9201,
6229.000,10.9169,
6228.000,10.9111,
6227.000,10.9034,
6226.000,10.8938,
6225.000,10.882,
6224.000,10.8689,
6223.000,10.8559,
6222.000,10.8435,
6221.000,10.8317,
6220.000,10.8203,
6219.000,10.8083,
6218.000,10.7937,
6217.000,10.7756,
6216.000,10.7543,
6215.000,10.7294,
6214.000,10.6998,
6213.000,10.6659,
6212.000,10.6294,
6211.000,10.591,
6210.000,10.5498,
6209.000,10.506,
6208.000,10.4626,
6207.000,10.422,
6206.000,10.3843,
6205.000,10.3486,
6204.000,10.3149,
6203.000,10.2817,
6202.000,10.2461,
6201.000,10.2061,
6200.000,10.1626,
6199.000,10.1174,
6198.000,10.0714,
6197.000,10.025,
6196.000,9.97883,
6195.000,9.93272,
6194.000,9.8851,
6193.000,9.83513,
6192.000,9.78339,
6191.000,9.73025,
6190.000,9.6754,
6189.000,9.61988,
6188.000,9.56582,
6187.000,9.51313,
6186.000,9.45911,
6185.000,9.40301,
6184.000,9.3483,
6183.000,9.2983,
6182.000,9.25184,
6181.000,9.20554,
6180.000,9.15835,
6179.000,9.11131,
6178.000,9.0641,
6177.000,9.01512,
6176.000,8.96431,
6175.000,8.91364,
6174.000,8.86435,
6173.000,8.81548,
6172.000,8.76521,
6171.000,8.71266,
6170.000,8.65813,
6169.000,8.60238,
6168.000,8.54609,
6167.000,8.48966,
6166.000,8.43357,
6165.000,8.37855,
6164.000,8.3247,
6163.000,8.27128,
6162.000,8.21801,
6161.000,8.16617,
6160.000,8.11704,
6159.000,8.06986,
6158.000,8.02301,
6157.000,7.97652,
6156.000,7.93132,
6155.000,7.88626,
6154.000,7.83867,
6153.000,7.78799,
6152.000,7.73655,
6151.000,7.68598,
6150.000,7.63547,
6149.000,7.58446,
6148.000,7.53459,
6147.000,7.48745,
6146.000,7.44228,
6145.000,7.39698,
6144.000,7.35008,
6143.000,7.3008,
6142.000,7.24891,
6141.000,7.19582,
6140.000,7.14421,
6139.000,7.09553,
6138.000,7.04914,
6137.000,7.00468,
6136.000,6.96319,
6135.000,6.92469,
6134.000,6.88662,
6133.000,6.84645,
6132.000,6.80458,
6131.000,6.76264,
6130.000,6.72018,
6129.000,6.67497,
6128.000,6.6262,
6127.000,6.57569,
6126.000,6.52623,
6125.000,6.47997,
6124.000,6.43803,
6123.000,6.40009,
6122.000,6.36396,
6121.000,6.32637,
6120.000,6.28499,
6119.000,6.24002,
6118.000,6.19407,
6117.000,6.14994,
6116.000,6.10822,
6115.000,6.06728,
6114.000,6.02596,
6113.000,5.98545,
6112.000,5.94723,
6111.000,5.91037,
6110.000,5.87257,
6109.000,5.83361,
6108.000,5.79505,
6107.000,5.7564,
6106.000,5.71455,
6105.000,5.66823,
6104.000,5.62109,
6103.000,5.57833,
6102.000,5.54143,
6101.000,5.50792,
6100.000,5.47481,
6099.000,5.44041,
6098.000,5.4035,
6097.000,5.3632,
6096.000,5.3205,
6095.000,5.27881,
6094.000,5.24185,
6093.000,5.21076,
6092.000,5.18296,
6091.000,5.15386,
6090.000,5.1198,
6089.000,5.0801,
6088.000,5.03661,
6087.000,4.99231,
6086.000,4.95034,
6085.000,4.91314,
6084.000,4.88057,
6083.000,4.84949,
6082.000,4.81656,
6081.000,4.78161,
6080.000,4.74691,
6079.000,4.71331,
6078.000,4.67924,
6077.000,4.64359,
6076.000,4.60741,
6075.000,4.57199,
6074.000,4.53705,
6073.000,4.50251,
6072.000,4.47021,
6071.000,4.44177,
6070.000,4.41546,
6069.000,4.38702,
6068.000,4.35381,
6067.000,4.31723,
6066.000,4.28083,
6065.000,4.24713,
6064.000,4.21627,
6063.000,4.18679,
6062.000,4.15729,
6061.000,4.1273,
6060.000,4.09693,
6059.000,4.06615,
6058.000,4.03495,
6057.000,4.00408,
6056.000,3.97484,
6055.000,3.94764,
6054.000,3.9215,
6053.000,3.89526,
6052.000,3.86893,
6051.000,3.84311,
6050.000,3.81753,
6049.000,3.79096,
6048.000,3.76216,
6047.000,3.73106,
6046.000,3.699,
6045.000,3.66841,
6044.000,3.6414,
6043.000,3.61828,
6042.000,3.59711,
6041.000,3.5752,
6040.000,3.55115,
6039.000,3.52563,
6038.000,3.50049,
6037.000,3.47712,
6036.000,3.45552,
6035.000,3.43448,
6034.000,3.41262,
6033.000,3.38935,
6032.000,3.36497,
6031.000,3.34049,
6030.000,3.31747,
6029.000,3.2976,
6028.000,3.28142,
6027.000,3.26732,
6026.000,3.25214,
6025.000,3.23326,
6024.000,3.21027,
6023.000,3.18512,
6022.000,3.16077,
6021.000,3.13935,
6020.000,3.12112,
6019.000,3.10516,
6018.000,3.09081,
6017.000,3.07766,
6016.000,3.06429,
6015.000,3.04848,
6014.000,3.02976,
6013.000,3.01063,
6012.000,2.99398,
6011.000,2.97988,
6010.000,2.96628,
6009.000,2.95196,
6008.000,2.93727,
6007.000,2.92247,
6006.000,2.90716,
6005.000,2.89174,
6004.000,2.87757,
6003.000,2.86529,
6002.000,2.85399,
6001.000,2.84244,
6000.000,2.83002,
5999.000,2.81638,
5998.000,2.80155,
5997.000,2.78658,
5996.000,2.77267,
5995.000,2.75945,
5994.000,2.74567,
5993.000,2.7317,
5992.000,2.71942,
5991.000,2.7093,
5990.000,2.69933,
5989.000,2.68825,
5988.000,2.67787,
5987.000,2.6705,
5986.000,2.66569,
5985.000,2.66096,
5984.000,2.65481,
5983.000,2.64718,
5982.000,2.63787,
5981.000,2.62677,
5980.000,2.61494,
5979.000,2.60404,
5978.000,2.59438,
5977.000,2.58521,
5976.000,2.57643,
5975.000,2.5685,
5974.000,2.56106,
5973.000,2.55308,
5972.000,2.54478,
5971.000,2.53763,
5970.000,2.53223,
5969.000,2.52756,
5968.000,2.52262,
5967.000,2.51792,
5966.000,2.5144,
5965.000,2.51185,
5964.000,2.50898,
5963.000,2.50457,
5962.000,2.49826,
5961.000,2.49063,
5960.000,2.48286,
5959.000,2.47592,
5958.000,2.46998,
5957.000,2.46469,
5956.000,2.46001,
5955.000,2.45604,
5954.000,2.452,
5953.000,2.44664,
5952.000,2.44001,
5951.000,2.43405,
5950.000,2.43058,
5949.000,2.42903,
5948.000,2.42697,
5947.000,2.42259,
5946.000,2.4158,
5945.000,2.40753,
5944.000,2.39876,
5943.000,2.39079,
5942.000,2.38506,
5941.000,2.38192,
5940.000,2.37973,
5939.000,2.37634,
5938.000,2.37173,
5937.000,2.36831,
5936.000,2.36846,
5935.000,2.37206,
5934.000,2.37711,
5933.000,2.38165,
5932.000,2.38448,
5931.000,2.38448,
5930.000,2.38114,
5929.000,2.37598,
5928.000,2.37214,
5927.000,2.3717,
5926.000,2.37383,
5925.000,2.376,
5924.000,2.37639,
5923.000,2.37482,
5922.000,2.37221,
5921.000,2.37027,
5920.000,2.37113,
5919.000,2.37619,
5918.000,2.38491,
5917.000,2.39519,
5916.000,2.40495,
5915.000,2.413,
5914.000,2.41879,
5913.000,2.42229,
5912.000,2.42419,
5911.000,2.42582,
5910.000,2.42848,
5909.000,2.43256,
5908.000,2.43742,
5907.000,2.4423,
5906.000,2.44742,
5905.000,2.45378,
5904.000,2.46117,
5903.000,2.46744,
5902.000,2.47092,
5901.000,2.47328,
5900.000,2.47843,
5899.000,2.48808,
5898.000,2.50012,
5897.000,2.51202,
5896.000,2.52364,
5895.000,2.53558,
5894.000,2.54657,
5893.000,2.55509,
5892.000,2.5622,
5891.000,2.57033,
5890.000,2.57966,
5889.000,2.58813,
5888.000,2.59529,
5887.000,2.60345,
5886.000,2.6142,
5885.000,2.62634,
5884.000,2.63822,
5883.000,2.65048,
5882.000,2.66425,
5881.000,2.67826,
5880.000,2.68985,
5879.000,2.69844,
5878.000,2.70616,
5877.000,2.71524,
5876.000,2.72615,
5875.000,2.73863,
5874.000,2.75305,
5873.000,2.76999,
5872.000,2.7889,
5871.000,2.80784,
5870.000,2.82452,
5869.000,2.83801,
5868.000,2.84931,
5867.000,2.86049,
5866.000,2.87272,
5865.000,2.88593,
5864.000,2.90022,
5863.000,2.91664,
5862.000,2.93573,
5861.000,2.95592,
5860.000,2.97493,
5859.000,2.9924,
5858.000,3.00977,
5857.000,3.02746,
5856.000,3.04393,
5855.000,3.05816,
5854.000,3.07117,
5853.000,3.08428,
5852.000,3.09703,
5851.000,3.10871,
5850.000,3.12092,
5849.000,3.13641,
5848.000,3.15569,
5847.000,3.17629,
5846.000,3.19574,
5845.000,3.21387,
5844.000,3.23183,
5843.000,3.25049,
5842.000,3.27011,
5841.000,3.29053,
5840.000,3.31081,
5839.000,3.33005,
5838.000,3.34883,
5837.000,3.36879,
5836.000,3.39032,
5835.000,3.41211,
5834.000,3.43368,
5833.000,3.45605,
5832.000,3.47908,
5831.000,3.50014,
5830.000,3.51772,
5829.000,3.53461,
5828.000,3.55481,
5827.000,3.57838,
5826.000,3.60186,
5825.000,3.62327,
5824.000,3.64384,
5823.000,3.66471,
5822.000,3.68492,
5821.000,3.70381,
5820.000,3.72297,
5819.000,3.74461,
5818.000,3.76918,
5817.000,3.7955,
5816.000,3.82201,
5815.000,3.84739,
5814.000,3.87105,
5813.000,3.89391,
5812.000,3.9174,
5811.000,3.94165,
5810.000,3.96565,
5809.000,3.98956,
5808.000,4.01487,
5807.000,4.04153,
5806.000,4.06716,
5805.000,4.09019,
5804.000,4.1124,
5803.000,4.13669,
5802.000,4.1637,
5801.000,4.19204,
5800.000,4.22076,
5799.000,4.24985,
5798.000,4.27896,
5797.000,4.30738,
5796.000,4.33525,
5795.000,4.36388,
5794.000,4.3946,
5793.000,4.4278,
5792.000,4.46248,
5791.000,4.49653,
5790.000,4.52804,
5789.000,4.55699,
5788.000,4.58526,
5787.000,4.61463,
5786.000,4.64547,
5785.000,4.67745,
5784.000,4.71024,
5783.000,4.74299,
5782.000,4.77455,
5781.000,4.80505,
5780.000,4.83648,
5779.000,4.87046,
5778.000,4.9064,
5777.000,4.9427,
5776.000,4.9786,
5775.000,5.01398,
5774.000,5.04843,
5773.000,5.08191,
5772.000,5.11585,
5771.000,5.15201,
5770.000,5.19057,
5769.000,5.23016,
5768.000,5.26928,
5767.000,5.30722,
5766.000,5.34393,
5765.000,5.38007,
5764.000,5.41667,
5763.000,5.45407,
5762.000,5.49169,
5761.000,5.52934,
5760.000,5.56809,
5759.000,5.60881,
5758.000,5.65059,
5757.000,5.69161,
5756.000,5.73107,
5755.000,5.76967,
5754.000,5.80841,
5753.000,5.84802,
5752.000,5.88886,
5751.000,5.93067,
5750.000,5.97252,
5749.000,6.0138,
5748.000,6.05494,
5747.000,6.09666,
5746.000,6.13904,
5745.000,6.18174,
5744.000,6.22474,
5743.000,6.26806,
5742.000,6.3115,
5741.000,6.35546,
5740.000,6.4012,
5739.000,6.44932,
5738.000,6.49793,
5737.000,6.54357,
5736.000,6.58432,
5735.000,6.62199,
5734.000,6.6611,
5733.000,6.70588,
5732.000,6.75741,
5731.000,6.81312,
5730.000,6.86897,
5729.000,6.92224,
5728.000,6.97242,
5727.000,7.02008,
5726.000,7.0662,
5725.000,7.11253,
5724.000,7.16113,
5723.000,7.21282,
5722.000,7.26657,
5721.000,7.32106,
5720.000,7.37614,
5719.000,7.4322,
5718.000,7.48883,
5717.000,7.54498,
5716.000,7.59993,
5715.000,7.65358,
5714.000,7.70621,
5713.000,7.75823,
5712.000,7.81003,
5711.000,7.86185,
5710.000,7.91413,
5709.000,7.96788,
5708.000,8.02371,
5707.000,8.08056,
5706.000,8.13617,
5705.000,8.18911,
5704.000,8.24025,
5703.000,8.29138,
5702.000,8.34355,
5701.000,8.39702,
5700.000,8.45105,
5699.000,8.50467,
5698.000,8.55722,
5697.000,8.60896,
5696.000,8.66043,
5695.000,8.71153,
5694.000,8.76166,
5693.000,8.81069,
5692.000,8.85882,
5691.000,8.90594,
5690.000,8.9517,
5689.000,8.99624,
5688.000,9.03988,
5687.000,9.08232,
5686.000,9.12293,
5685.000,9.16176,
5684.000,9.1994,
5683.000,9.23636,
5682.000,9.27289,
5681.000,9.30899,
5680.000,9.34362,
5679.000,9.37492,
5678.000,9.40224,
5677.000,9.42736,
5676.000,9.45225,
5675.000,9.47653,
5674.000,9.4984,
5673.000,9.51729,
5672.000,9.534,
5671.000,9.54877,
5670.000,9.56105,
5669.000,9.57082,
5668.000,9.57848,
5667.000,9.58374,
5666.000,9.58598,
5665.000,9.58552,
5664.000,9.58325,
5663.000,9.57972,
5662.000,9.57542,
5661.000,9.57098,
5660.000,9.56566,
5659.000,9.55685,
5658.000,9.54289,
5657.000,9.52531,
5656.000,9.50648,
5655.000,9.4865,
5654.000,9.46444,
5653.000,9.44102,
5652.000,9.41728,
5651.000,9.39191,
5650.000,9.36296,
5649.000,9.33154,
5648.000,9.30062,
5647.000,9.2707,
5646.000,9.23962,
5645.000,9.20652,
5644.000,9.17264,
5643.000,9.13814,
5642.000,9.10151,
5641.000,9.06251,
5640.000,9.02289,
5639.000,8.98341,
5638.000,8.94275,
5637.000,8.90035,
5636.000,8.85774,
5635.000,8.81609,
5634.000,8.77443,
5633.000,8.73124,
5632.000,8.68614,
5631.000,8.63941,
5630.000,8.59156,
5629.000,8.54387,
5628.000,8.49767,
5627.000,8.45261,
5626.000,8.40673,
5625.000,8.35885,
5624.000,8.30942,
5623.000,8.25933,
5622.000,8.2095,
5621.000,8.16138,
5620.000,8.11575,
5619.000,8.07089,
5618.000,8.02392,
5617.000,7.97408,
5616.000,7.92306,
5615.000,7.87218,
5614.000,7.82139,
5613.000,7.77095,
5612.000,7.72174,
5611.000,7.67334,
5610.000,7.62411,
5609.000,7.57363,
5608.000,7.52318,
5607.000,7.47325,
5606.000,7.42269,
5605.000,7.37108,
5604.000,7.31997,
5603.000,7.27063,
5602.000,7.22229,
5601.000,7.1734,
5600.000,7.12346,
5599.000,7.07251,
5598.000,7.0205,
5597.000,6.96826,
5596.000,6.91774,
5595.000,6.87035,
5594.000,6.82555,
5593.000,6.78164,
5592.000,6.73703,
5591.000,6.69046,
5590.000,6.64157,
5589.000,6.5918,
5588.000,6.54346,
5587.000,6.49733,
5586.000,6.45184,
5585.000,6.40533,
5584.000,6.35797,
5583.000,6.31094,
5582.000,6.26484,
5581.000,6.21957,
5580.000,6.17473,
5579.000,6.12952,
5578.000,6.08276,
5577.000,6.0339,
5576.000,5.98361,
5575.000,5.93335,
5574.000,5.88472,
5573.000,5.83903,
5572.000,5.79658,
5571.000,5.75615,
5570.000,5.71593,
5569.000,5.67525,
5568.000,5.6346,
5567.000,5.59401,
5566.000,5.55256,
5565.000,5.50974,
5564.000,5.46635,
5563.000,5.42352,
5562.000,5.3816,
5561.000,5.34062,
5560.000,5.3008,
5559.000,5.26202,
5558.000,5.22332,
5557.000,5.18371,
5556.000,5.14312,
5555.000,5.10212,
5554.000,5.06107,
5553.000,5.01986,
5552.000,4.97853,
5551.000,4.93751,
5550.000,4.89744,
5549.000,4.85878,
5548.000,4.82165,
5547.000,4.78574,
5546.000,4.75041,
5545.000,4.71467,
5544.000,4.67736,
5543.000,4.63773,
5542.000,4.59633,
5541.000,4.55495,
5540.000,4.51518,
5539.000,4.47733,
5538.000,4.4407,
5537.000,4.40464,
5536.000,4.36886,
5535.000,4.33329,
5534.000,4.29802,
5533.000,4.2633,
5532.000,4.22912,
5531.000,4.19492,
5530.000,4.16008,
5529.000,4.12439,
5528.000,4.08787,
5527.000,4.05076,
5526.000,4.01408,
5525.000,3.97924,
5524.000,3.94662,
5523.000,3.91494,
5522.000,3.88279,
5521.000,3.85012,
5520.000,3.81769,
5519.000,3.78561,
5518.000,3.75324,
5517.000,3.72021,
5516.000,3.68652,
5515.000,3.65191,
5514.000,3.61614,
5513.000,3.57983,
5512.000,3.54456,
5511.000,3.51181,
5510.000,3.48205,
5509.000,3.45467,
5508.000,3.42829,
5507.000,3.40149,
5506.000,3.37358,
5505.000,3.34463,
5504.000,3.31485,
5503.000,3.28438,
5502.000,3.2539,
5501.000,3.22459,
5500.000,3.19693,
5499.000,3.17014,
5498.000,3.1434,
5497.000,3.11685,
5496.000,3.09084,
5495.000,3.06495,
5494.000,3.03857,
5493.000,3.01201,
5492.000,2.98601,
5491.000,2.96068,
5490.000,2.93578,
5489.000,2.91153,
5488.000,2.88814,
5487.000,2.86476,
5486.000,2.8401,
5485.000,2.81406,
5484.000,2.7881,
5483.000,2.76389,
5482.000,2.74176,
5481.000,2.72079,
5480.000,2.69991,
5479.000,2.67901,
5478.000,2.6593,
5477.000,2.64194,
5476.000,2.6263,
5475.000,2.61003,
5474.000,2.59113,
5473.000,2.56959,
5472.000,2.54647,
5471.000,2.52251,
5470.000,2.49865,
5469.000,2.47704,
5468.000,2.45969,
5467.000,2.44601,
5466.000,2.43295,
5465.000,2.41798,
5464.000,2.40058,
5463.000,2.38125,
5462.000,2.3605,
5461.000,2.33933,
5460.000,2.31936,
5459.000,2.30153,
5458.000,2.28537,
5457.000,2.27001,
5456.000,2.25525,
5455.000,2.24148,
5454.000,2.22893,
5453.000,2.21714,
5452.000,2.20464,
5451.000,2.18933,
5450.000,2.1703,
5449.000,2.14943,
5448.000,2.13018,
5447.000,2.11448,
5446.000,2.10156,
5445.000,2.08967,
5444.000,2.07789,
5443.000,2.06587,
5442.000,2.05315,
5441.000,2.03957,
5440.000,2.0257,
5439.000,2.01218,
5438.000,1.99922,
5437.000,1.987,
5436.000,1.97576,
5435.000,1.96497,
5434.000,1.95332,
5433.000,1.9403,
5432.000,1.92723,
5431.000,1.91593,
5430.000,1.90681,
5429.000,1.89873,
5428.000,1.89019,
5427.000,1.88003,
5426.000,1.86784,
5425.000,1.85462,
5424.000,1.84232,
5423.000,1.83228,
5422.000,1.82393,
5421.000,1.81589,
5420.000,1.80772,
5419.000,1.80011,
5418.000,1.79345,
5417.000,1.78717,
5416.000,1.78022,
5415.000,1.77174,
5414.000,1.76124,
5413.000,1.74896,
5412.000,1.73631,
5411.000,1.72533,
5410.000,1.71718,
5409.000,1.71121,
5408.000,1.70576,
5407.000,1.69963,
5406.000,1.69288,
5405.000,1.68622,
5404.000,1.68004,
5403.000,1.67407,
5402.000,1.66785,
5401.000,1.66144,
5400.000,1.65516,
5399.000,1.64909,
5398.000,1.64322,
5397.000,1.63807,
5396.000,1.63433,
5395.000,1.63193,
5394.000,1.6297,
5393.000,1.62637,
5392.000,1.62166,
5391.000,1.61613,
5390.000,1.61057,
5389.000,1.60562,
5388.000,1.60168,
5387.000,1.59855,
5386.000,1.59536,
5385.000,1.59156,
5384.000,1.58776,
5383.000,1.58523,
5382.000,1.58449,
5381.000,1.58474,
5380.000,1.58464,
5379.000,1.58336,
5378.000,1.5809,
5377.000,1.57799,
5376.000,1.57562,
5375.000,1.57417,
5374.000,1.57313,
5373.000,1.5718,
5372.000,1.57019,
5371.000,1.56905,
5370.000,1.56914,
5369.000,1.57081,
5368.000,1.57403,
5367.000,1.57836,
5366.000,1.58287,
5365.000,1.58659,
5364.000,1.5892,
5363.000,1.59096,
5362.000,1.59202,
5361.000,1.59229,
5360.000,1.59199,
5359.000,1.59167,
5358.000,1.5919,
5357.000,1.59324,
5356.000,1.5964,
5355.000,1.60203,
5354.000,1.6097,
5353.000,1.61783,
5352.000,1.62511,
5351.000,1.63161,
5350.000,1.63784,
5349.000,1.64345,
5348.000,1.64778,
5347.000,1.65142,
5346.000,1.65604,
5345.000,1.6624,
5344.000,1.66921,
5343.000,1.67491,
5342.000,1.67968,
5341.000,1.68489,
5340.000,1.69091,
5339.000,1.69667,
5338.000,1.70167,
5337.000,1.70667,
5336.000,1.7124,
5335.000,1.71887,
5334.000,1.72601,
5333.000,1.73385,
5332.000,1.74172,
5331.000,1.74847,
5330.000,1.75421,
5329.000,1.76065,
5328.000,1.76886,
5327.000,1.77796,
5326.000,1.78664,
5325.000,1.79507,
5324.000,1.80419,
5323.000,1.81411,
5322.000,1.82422,
5321.000,1.83439,
5320.000,1.8448,
5319.000,1.85498,
5318.000,1.86432,
5317.000,1.87322,
5316.000,1.88265,
5315.000,1.89279,
5314.000,1.90305,
5313.000,1.91339,
5312.000,1.9245,
5311.000,1.93666,
5310.000,1.94935,
5309.000,1.9621,
5308.000,1.97472,
5307.000,1.98678,
5306.000,1.99778,
5305.000,2.00819,
5304.000,2.01927,
5303.000,2.0318,
5302.000,2.04551,
5301.000,2.05981,
5300.000,2.07417,
5299.000,2.08785,
5298.000,2.10033,
5297.000,2.11222,
5296.000,2.12472,
5295.000,2.13811,
5294.000,2.15191,
5293.000,2.16627,
5292.000,2.18198,
5291.000,2.19887,
5290.000,2.21545,
5289.000,2.23065,
5288.000,2.2447,
5287.000,2.25795,
5286.000,2.27021,
5285.000,2.28201,
5284.000,2.29493,
5283.000,2.30993,
5282.000,2.32624,
5281.000,2.3428,
5280.000,2.35971,
5279.000,2.3773,
5278.000,2.39486,
5277.000,2.41175,
5276.000,2.42859,
5275.000,2.4461,
5274.000,2.46355,
5273.000,2.47986,
5272.000,2.49561,
5271.000,2.51224,
5270.000,2.52981,
5269.000,2.54686,
5268.000,2.5628,
5267.000,2.57878,
5266.000,2.59619,
5265.000,2.61525,
5264.000,2.6355,
5263.000,2.65638,
5262.000,2.67677,
5261.000,2.69525,
5260.000,2.71182,
5259.000,2.72838,
5258.000,2.74695,
5257.000,2.76776,
5256.000,2.78928,
5255.000,2.80979,
5254.000,2.82859,
5253.000,2.84632,
5252.000,2.86446,
5251.000,2.88447,
5250.000,2.90657,
5249.000,2.92959,
5248.000,2.95211,
5247.000,2.97343,
5246.000,2.99353,
5245.000,3.0128,
5244.000,3.03186,
5243.000,3.05125,
5242.000,3.07104,
5241.000,3.09119,
5240.000,3.11221,
5239.000,3.13487,
5238.000,3.15903,
5237.000,3.18348,
5236.000,3.20734,
5235.000,3.23105,
5234.000,3.25558,
5233.000,3.28112,
5232.000,3.30707,
5231.000,3.33271,
5230.000,3.35748,
5229.000,3.38131,
5228.000,3.40488,
5227.000,3.42917,
5226.000,3.45458,
5225.000,3.48068,
5224.000,3.50681,
5223.000,3.53259,
5222.000,3.5582,
5221.000,3.58415,
5220.000,3.61077,
5219.000,3.63775,
5218.000,3.66431,
5217.000,3.68994,
5216.000,3.71495,
5215.000,3.74035,
5214.000,3.76743,
5213.000,3.79685,
5212.000,3.82783,
5211.000,3.85885,
5210.000,3.8893,
5209.000,3.91991,
5208.000,3.95137,
5207.000,3.98321,
5206.000,4.01436,
5205.000,4.04463,
5204.000,4.07501,
5203.000,4.10646,
5202.000,4.13904,
5201.000,4.17231,
5200.000,4.20586,
5199.000,4.23929,
5198.000,4.27226,
5197.000,4.30507,
5196.000,4.33856,
5195.000,4.37327,
5194.000,4.40885,
5193.000,4.44468,
5192.000,4.48052,
5191.000,4.51638,
5190.000,4.55226,
5189.000,4.58827,
5188.000,4.62476,
5187.000,4.66205,
5186.000,4.70016,
5185.000,4.73885,
5184.000,4.77782,
5183.000,4.81681,
5182.000,4.85589,
5181.000,4.89555,
5180.000,4.93627,
5179.000,4.97789,
5178.000,5.01979,
5177.000,5.06154,
5176.000,5.10305,
5175.000,5.14435,
5174.000,5.18594,
5173.000,5.22904,
5172.000,5.27458,
5171.000,5.3219,
5170.000,5.36918,
5169.000,5.41542,
5168.000,5.4611,
5167.000,5.50709,
5166.000,5.55366,
5165.000,5.60076,
5164.000,5.64824,
5163.000,5.69556,
5162.000,5.7421,
5161.000,5.78808,
5160.000,5.83462,
5159.000,5.88229,
5158.000,5.93059,
5157.000,5.97911,
5156.000,6.02828,
5155.000,6.07855,
5154.000,6.1296,
5153.000,6.18082,
5152.000,6.23195,
5151.000,6.28284,
5150.000,6.33335,
5149.000,6.38384,
5148.000,6.43512,
5147.000,6.48751,
5146.000,6.54045,
5145.000,6.59334,
5144.000,6.64614,
5143.000,6.69882,
5142.000,6.75107,
5141.000,6.80275,
5140.000,6.85403,
5139.000,6.90476,
5138.000,6.95448,
5137.000,7.00328,
5136.000,7.05192,
5135.000,7.10094,
5134.000,7.15033,
5133.000,7.20012,
5132.000,7.25038,
5131.000,7.30052,
5130.000,7.34962,
5129.000,7.39763,
5128.000,7.44517,
5127.000,7.49215,
5126.000,7.53769,
5125.000,7.58148,
5124.000,7.62401,
5123.000,7.66524,
5122.000,7.70443,
5121.000,7.74169,
5120.000,7.77814,
5119.000,7.81413,
5118.000,7.84853,
5117.000,7.88071,
5116.000,7.91139,
5115.000,7.94103,
5114.000,7.96864,
5113.000,7.99343,
5112.000,8.01632,
5111.000,8.03861,
5110.000,8.05999,
5109.000,8.07906,
5108.000,8.09503,
5107.000,8.10791,
5106.000,8.11772,
5105.000,8.12484,
5104.000,8.13054,
5103.000,8.13613,
5102.000,8.14154,
5101.000,8.14523,
5100.000,8.14535,
5099.000,8.14062,
5098.000,8.13086,
5097.000,8.11732,
5096.000,8.10212,
5095.000,8.08673,
5094.000,8.07114,
5093.000,8.05455,
5092.000,8.0361,
5091.000,8.01505,
5090.000,7.99096,
5089.000,7.96434,
5088.000,7.93636,
5087.000,7.9075,
5086.000,7.87704,
5085.000,7.8444,
5084.000,7.81014,
5083.000,7.7753,
5082.000,7.74042,
5081.000,7.70539,
5080.000,7.66982,
5079.000,7.63294,
5078.000,7.5939,
5077.000,7.55261,
5076.000,7.51011,
5075.000,7.46752,
5074.000,7.42508,
5073.000,7.38224,
5072.000,7.33834,
5071.000,7.29313,
5070.000,7.24693,
5069.000,7.20048,
5068.000,7.1542,
5067.000,7.10757,
5066.000,7.05984,
5065.000,7.01109,
5064.000,6.96215,
5063.000,6.9135,
5062.000,6.86487,
5061.000,6.81608,
5060.000,6.76746,
5059.000,6.7193,
5058.000,6.67164,
5057.000,6.62447,
5056.000,6.5776,
5055.000,6.53015,
5054.000,6.48101,
5053.000,6.4301,
5052.000,6.37861,
5051.000,6.32774,
5050.000,6.27788,
5049.000,6.22909,
5048.000,6.18156,
5047.000,6.13531,
5046.000,6.0897,
5045.000,6.04392,
5044.000,5.99769,
5043.000,5.95126,
5042.000,5.90505,
5041.000,5.85933,
5040.000,5.8141,
5039.000,5.76891,
5038.000,5.72321,
5037.000,5.67693,
5036.000,5.63041,
5035.000,5.58394,
5034.000,5.53763,
5033.000,5.49169,
5032.000,5.44652,
5031.000,5.40219,
5030.000,5.35814,
5029.000,5.31348,
5028.000,5.26775,
5027.000,5.22131,
5026.000,5.17522,
5025.000,5.13041,
5024.000,5.08684,
5023.000,5.0437,
5022.000,5.00058,
5021.000,4.95807,
5020.000,4.917,
5019.000,4.87725,
5018.000,4.8377,
5017.000,4.7972,
5016.000,4.75535,
5015.000,4.71284,
5014.000,4.67109,
5013.000,4.6312,
5012.000,4.59276,
5011.000,4.55405,
5010.000,4.5138,
5009.000,4.47242,
5008.000,4.43144,
5007.000,4.3918,
5006.000,4.35358,
5005.000,4.31617,
5004.000,4.27876,
5003.000,4.24071,
5002.000,4.20203,
5001.000,4.16358,
5000.000,4.12617,
4999.000,4.08978,
4998.000,4.05381,
4997.000,4.01786,
4996.000,3.98176,
4995.000,3.94527,
4994.000,3.9083,
4993.000,3.87122,
4992.000,3.83451,
4991.000,3.79813,
4990.000,3.76168,
4989.000,3.72498,
4988.000,3.68811,
4987.000,3.65123,
4986.000,3.61474,
4985.000,3.57947,
4984.000,3.54616,
4983.000,3.51479,
4982.000,3.48454,
4981.000,3.45426,
4980.000,3.42284,
4979.000,3.38951,
4978.000,3.35443,
4977.000,3.31866,
4976.000,3.28337,
4975.000,3.24922,
4974.000,3.2165,
4973.000,3.18522,
4972.000,3.15481,
4971.000,3.12438,
4970.000,3.09371,
4969.000,3.06353,
4968.000,3.03423,
4967.000,3.00499,
4966.000,2.97469,
4965.000,2.94322,
4964.000,2.91158,
4963.000,2.88099,
4962.000,2.85246,
4961.000,2.82626,
4960.000,2.80108,
4959.000,2.77449,
4958.000,2.74528,
4957.000,2.71494,
4956.000,2.68602,
4955.000,2.65933,
4954.000,2.63376,
4953.000,2.60806,
4952.000,2.58178,
4951.000,2.55483,
4950.000,2.52756,
4949.000,2.5011,
4948.000,2.47653,
4947.000,2.45342,
4946.000,2.43023,
4945.000,2.40616,
4944.000,2.38159,
4943.000,2.35677,
4942.000,2.33154,
4941.000,2.30637,
4940.000,2.28265,
4939.000,2.26116,
4938.000,2.24111,
4937.000,2.22116,
4936.000,2.20066,
4935.000,2.17947,
4934.000,2.15753,
4933.000,2.13524,
4932.000,2.11359,
4931.000,2.0933,
4930.000,2.07405,
4929.000,2.05513,
4928.000,2.03621,
4927.000,2.01734,
4926.000,1.99848,
4925.000,1.97976,
4924.000,1.96155,
4923.000,1.94402,
4922.000,1.92692,
4921.000,1.91001,
4920.000,1.8933,
4919.000,1.87658,
4918.000,1.8593,
4917.000,1.84125,
4916.000,1.82311,
4915.000,1.80566,
4914.000,1.78904,
4913.000,1.77289,
4912.000,1.75702,
4911.000,1.74134,
4910.000,1.72576,
4909.000,1.71038,
4908.000,1.69556,
4907.000,1.6813,
4906.000,1.66703,
4905.000,1.65241,
4904.000,1.63795,
4903.000,1.62427,
4902.000,1.61112,
4901.000,1.59769,
4900.000,1.58372,
4899.000,1.56973,
4898.000,1.55638,
4897.000,1.54395,
4896.000,1.53235,
4895.000,1.52096,
4894.000,1.50864,
4893.000,1.49468,
4892.000,1.47961,
4891.000,1.46492,
4890.000,1.45173,
4889.000,1.44011,
4888.000,1.42947,
4887.000,1.41905,
4886.000,1.40808,
4885.000,1.39626,
4884.000,1.3842,
4883.000,1.37281,
4882.000,1.36231,
4881.000,1.35195,
4880.000,1.341,
4879.000,1.32947,
4878.000,1.31795,
4877.000,1.30701,
4876.000,1.29703,
4875.000,1.28797,
4874.000,1.2792,
4873.000,1.26979,
4872.000,1.2594,
4871.000,1.24858,
4870.000,1.23812,
4869.000,1.2283,
4868.000,1.21901,
4867.000,1.21024,
4866.000,1.20205,
4865.000,1.19438,
4864.000,1.1872,
4863.000,1.18065,
4862.000,1.1746,
4861.000,1.16832,
4860.000,1.16106,
4859.000,1.15281,
4858.000,1.14429,
4857.000,1.13613,
4856.000,1.12837,
4855.000,1.12065,
4854.000,1.11271,
4853.000,1.1046,
4852.000,1.09677,
4851.000,1.08986,
4850.000,1.0843,
4849.000,1.07991,
4848.000,1.07602,
4847.000,1.07195,
4846.000,1.06741,
4845.000,1.06243,
4844.000,1.05719,
4843.000,1.0519,
4842.000,1.04674,
4841.000,1.04191,
4840.000,1.03764,
4839.000,1.03415,
4838.000,1.03134,
4837.000,1.02867,
4836.000,1.02538,
4835.000,1.02106,
4834.000,1.01587,
4833.000,1.01047,
4832.000,1.00571,
4831.000,1.00228,
4830.000,1.00034,
4829.000,0.999184,
4828.000,0.997573,
4827.000,0.994508,
4826.000,0.989917,
4825.000,0.984667,
4824.000,0.98002,
4823.000,0.976997,
4822.000,0.975968,
4821.000,0.976519,
4820.000,0.977686,
4819.000,0.978493,
4818.000,0.978529,
4817.000,0.978059,
4816.000,0.977581,
4815.000,0.977305,
4814.000,0.977089,
4813.000,0.976754,
4812.000,0.976313,
4811.000,0.975917,
4810.000,0.975722,
4809.000,0.975877,
4808.000,0.976492,
4807.000,0.977445,
4806.000,0.978318,
4805.000,0.978763,
4804.000,0.978982,
4803.000,0.97961,
4802.000,0.981019,
4801.000,0.982904,
4800.000,0.984649,
4799.000,0.985959,
4798.000,0.987088,
4797.000,0.98858,
4796.000,0.9909,
4795.000,0.994109,
4794.000,0.997705,
4793.000,1.00091,
4792.000,1.00327,
4791.000,1.00509,
4790.000,1.00703,
4789.000,1.00954,
4788.000,1.01267,
4787.000,1.01631,
4786.000,1.02027,
4785.000,1.02424,
4784.000,1.02792,
4783.000,1.03118,
4782.000,1.03405,
4781.000,1.03675,
4780.000,1.03968,
4779.000,1.04348,
4778.000,1.04864,
4777.000,1.05503,
4776.000,1.06193,
4775.000,1.06844,
4774.000,1.07398,
4773.000,1.07842,
4772.000,1.08215,
4771.000,1.08592,
4770.000,1.09048,
4769.000,1.09605,
4768.000,1.10233,
4767.000,1.10898,
4766.000,1.1159,
4765.000,1.12298,
4764.000,1.12998,
4763.000,1.13674,
4762.000,1.1433,
4761.000,1.14969,
4760.000,1.15583,
4759.000,1.16184,
4758.000,1.16834,
4757.000,1.17594,
4756.000,1.18449,
4755.000,1.19317,
4754.000,1.20141,
4753.000,1.20944,
4752.000,1.21773,
4751.000,1.2263,
4750.000,1.23475,
4749.000,1.24272,
4748.000,1.25019,
4747.000,1.25744,
4746.000,1.26496,
4745.000,1.27329,
4744.000,1.28253,
4743.000,1.29216,
4742.000,1.30153,
4741.000,1.31053,
4740.000,1.3196,
4739.000,1.32907,
4738.000,1.33894,
4737.000,1.34916,
4736.000,1.3598,
4735.000,1.37077,
4734.000,1.38164,
4733.000,1.39223,
4732.000,1.4028,
4731.000,1.41357,
4730.000,1.42416,
4729.000,1.43414,
4728.000,1.44377,
4727.000,1.45398,
4726.000,1.46547,
4725.000,1.47822,
4724.000,1.49166,
4723.000,1.50508,
4722.000,1.51782,
4721.000,1.5297,
4720.000,1.54128,
4719.000,1.55334,
4718.000,1.56612,
4717.000,1.57932,
4716.000,1.59285,
4715.000,1.60697,
4714.000,1.62161,
4713.000,1.63604,
4712.000,1.64969,
4711.000,1.66293,
4710.000,1.67657,
4709.000,1.69101,
4708.000,1.70605,
4707.000,1.72143,
4706.000,1.73691,
4705.000,1.75218,
4704.000,1.76715,
4703.000,1.78226,
4702.000,1.79796,
4701.000,1.81391,
4700.000,1.82932,
4699.000,1.84396,
4698.000,1.85843,
4697.000,1.87343,
4696.000,1.88911,
4695.000,1.90544,
4694.000,1.92239,
4693.000,1.93974,
4692.000,1.95691,
4691.000,1.97349,
4690.000,1.98948,
4689.000,2.00492,
4688.000,2.01978,
4687.000,2.03446,
4686.000,2.04997,
4685.000,2.06704,
4684.000,2.08522,
4683.000,2.10328,
4682.000,2.12047,
4681.000,2.13679,
4680.000,2.15262,
4679.000,2.16845,
4678.000,2.18493,
4677.000,2.2025,
4676.000,2.2208,
4675.000,2.23898,
4674.000,2.25672,
4673.000,2.27452,
4672.000,2.29301,
4671.000,2.31231,
4670.000,2.33229,
4669.000,2.35275,
4668.000,2.37331,
4667.000,2.39356,
4666.000,2.4135,
4665.000,2.43361,
4664.000,2.45411,
4663.000,2.47463,
4662.000,2.49496,
4661.000,2.51556,
4660.000,2.53693,
4659.000,2.55892,
4658.000,2.58103,
4657.000,2.60328,
4656.000,2.6262,
4655.000,2.64999,
4654.000,2.67423,
4653.000,2.69845,
4652.000,2.72257,
4651.000,2.74661,
4650.000,2.77057,
4649.000,2.7945,
4648.000,2.81869,
4647.000,2.84342,
4646.000,2.86903,
4645.000,2.89592,
4644.000,2.92417,
4643.000,2.95294,
4642.000,2.98074,
4641.000,3.00663,
4640.000,3.03109,
4639.000,3.05563,
4638.000,3.08156,
4637.000,3.10931,
4636.000,3.13845,
4635.000,3.16811,
4634.000,3.1974,
4633.000,3.22587,
4632.000,3.25379,
4631.000,3.28213,
4630.000,3.31184,
4629.000,3.34304,
4628.000,3.3748,
4627.000,3.40594,
4626.000,3.43609,
4625.000,3.46588,
4624.000,3.4963,
4623.000,3.52786,
4622.000,3.56035,
4621.000,3.59321,
4620.000,3.62603,
4619.000,3.65891,
4618.000,3.69245,
4617.000,3.72713,
4616.000,3.76268,
4615.000,3.79834,
4614.000,3.83369,
4613.000,3.869,
4612.000,3.90476,
4611.000,3.94113,
4610.000,3.97817,
4609.000,4.01605,
4608.000,4.05484,
4607.000,4.09419,
4606.000,4.13361,
4605.000,4.17284,
4604.000,4.2119,
4603.000,4.251,
4602.000,4.29077,
4601.000,4.33201,
4600.000,4.3748,
4599.000,4.41839,
4598.000,4.46204,
4597.000,4.50585,
4596.000,4.55023,
4595.000,4.5948,
4594.000,4.63848,
4593.000,4.68061,
4592.000,4.72178,
4591.000,4.76347,
4590.000,4.80711,
4589.000,4.85319,
4588.000,4.9008,
4587.000,4.94841,
4586.000,4.99527,
4585.000,5.04207,
4584.000,5.08992,
4583.000,5.13903,
4582.000,5.18881,
4581.000,5.23871,
4580.000,5.28846,
4579.000,5.33784,
4578.000,5.3867,
4577.000,5.43528,
4576.000,5.48387,
4575.000,5.53251,
4574.000,5.58109,
4573.000,5.62968,
4572.000,5.67821,
4571.000,5.72622,
4570.000,5.77347,
4569.000,5.82047,
4568.000,5.86781,
4567.000,5.91519,
4566.000,5.96168,
4565.000,6.00684,
4564.000,6.05095,
4563.000,6.09428,
4562.000,6.13686,
4561.000,6.17869,
4560.000,6.21972,
4559.000,6.25974,
4558.000,6.29868,
4557.000,6.33689,
4556.000,6.37458,
4555.000,6.41117,
4554.000,6.44576,
4553.000,6.47811,
4552.000,6.50856,
4551.000,6.53718,
4550.000,6.56342,
4549.000,6.58681,
4548.000,6.60725,
4547.000,6.6249,
4546.000,6.64028,
4545.000,6.6542,
4544.000,6.66713,
4543.000,6.67858,
4542.000,6.68767,
4541.000,6.69422,
4540.000,6.69877,
4539.000,6.70177,
4538.000,6.70312,
4537.000,6.70241,
4536.000,6.6991,
4535.000,6.69258,
4534.000,6.68265,
4533.000,6.66989,
4532.000,6.65515,
4531.000,6.63895,
4530.000,6.62139,
4529.000,6.60239,
4528.000,6.58144,
4527.000,6.55754,
4526.000,6.53012,
4525.000,6.49986,
4524.000,6.46816,
4523.000,6.43591,
4522.000,6.40309,
4521.000,6.3693,
4520.000,6.3341,
4519.000,6.29726,
4518.000,6.25912,
4517.000,6.22047,
4516.000,6.18172,
4515.000,6.14227,
4514.000,6.10125,
4513.000,6.05869,
4512.000,6.01537,
4511.000,5.97188,
4510.000,5.92815,
4509.000,5.88393,
4508.000,5.83897,
4507.000,5.79294,
4506.000,5.74581,
4505.000,5.69822,
4504.000,5.65117,
4503.000,5.60526,
4502.000,5.56038,
4501.000,5.51583,
4500.000,5.47055,
4499.000,5.42371,
4498.000,5.37568,
4497.000,5.3281,
4496.000,5.28252,
4495.000,5.23881,
4494.000,5.19532,
4493.000,5.15048,
4492.000,5.10375,
4491.000,5.05565,
4490.000,5.00736,
4489.000,4.96023,
4488.000,4.91492,
4487.000,4.87106,
4486.000,4.82761,
4485.000,4.78386,
4484.000,4.73965,
4483.000,4.69522,
4482.000,4.65111,
4481.000,4.60791,
4480.000,4.56565,
4479.000,4.52344,
4478.000,4.48028,
4477.000,4.43605,
4476.000,4.39159,
4475.000,4.3478,
4474.000,4.30516,
4473.000,4.26375,
4472.000,4.22323,
4471.000,4.18298,
4470.000,4.14254,
4469.000,4.10205,
4468.000,4.0619,
4467.000,4.02225,
4466.000,3.9831,
4465.000,3.94447,
4464.000,3.90633,
4463.000,3.86825,
4462.000,3.82977,
4461.000,3.79085,
4460.000,3.75177,
4459.000,3.71257,
4458.000,3.67317,
4457.000,3.63384,
4456.000,3.59515,
4455.000,3.55743,
4454.000,3.5207,
4453.000,3.48503,
4452.000,3.45057,
4451.000,3.41709,
4450.000,3.38377,
4449.000,3.34966,
4448.000,3.31431,
4447.000,3.27793,
4446.000,3.24132,
4445.000,3.20538,
4444.000,3.17045,
4443.000,3.136,
4442.000,3.10123,
4441.000,3.06597,
4440.000,3.03096,
4439.000,2.99707,
4438.000,2.96446,
4437.000,2.93251,
4436.000,2.90033,
4435.000,2.86742,
4434.000,2.83402,
4433.000,2.80091,
4432.000,2.76875,
4431.000,2.73749,
4430.000,2.70649,
4429.000,2.67512,
4428.000,2.64318,
4427.000,2.61083,
4426.000,2.57842,
4425.000,2.54639,
4424.000,2.51524,
4423.000,2.48524,
4422.000,2.45626,
4421.000,2.4279,
4420.000,2.39978,
4419.000,2.37178,
4418.000,2.34389,
4417.000,2.31595,
4416.000,2.28768,
4415.000,2.25898,
4414.000,2.23014,
4413.000,2.2017,
4412.000,2.17403,
4411.000,2.14715,
4410.000,2.12087,
4409.000,2.0951,
4408.000,2.06982,
4407.000,2.04505,
4406.000,2.02078,
4405.000,1.99689,
4404.000,1.97305,
4403.000,1.94891,
4402.000,1.92449,
4401.000,1.90028,
4400.000,1.87689,
4399.000,1.85443,
4398.000,1.83246,
4397.000,1.81037,
4396.000,1.78793,
4395.000,1.76539,
4394.000,1.74328,
4393.000,1.72191,
4392.000,1.70125,
4391.000,1.68116,
4390.000,1.66167,
4389.000,1.64283,
4388.000,1.62437,
4387.000,1.60586,
4386.000,1.58727,
4385.000,1.56905,
4384.000,1.55157,
4383.000,1.53451,
4382.000,1.51717,
4381.000,1.49924,
4380.000,1.48117,
4379.000,1.46365,
4378.000,1.44703,
4377.000,1.4312,
4376.000,1.41591,
4375.000,1.40116,
4374.000,1.38702,
4373.000,1.37334,
4372.000,1.3596,
4371.000,1.3453,
4370.000,1.33048,
4369.000,1.31571,
4368.000,1.30146,
4367.000,1.28776,
4366.000,1.27443,
4365.000,1.26144,
4364.000,1.24891,
4363.000,1.23674,
4362.000,1.22449,
4361.000,1.21177,
4360.000,1.19865,
4359.000,1.18561,
4358.000,1.17306,
4357.000,1.16096,
4356.000,1.1488,
4355.000,1.13611,
4354.000,1.12306,
4353.000,1.11036,
4352.000,1.09861,
4351.000,1.08775,
4350.000,1.07722,
4349.000,1.06666,
4348.000,1.05611,
4347.000,1.04569,
4346.000,1.03525,
4345.000,1.02459,
4344.000,1.01391,
4343.000,1.00387,
4342.000,0.994963,
4341.000,0.986969,
4340.000,0.979002,
4339.000,0.97025,
4338.000,0.960593,
4337.000,0.950548,
4336.000,0.940736,
4335.000,0.93147,
4334.000,0.922751,
4333.000,0.914376,
4332.000,0.905929,
4331.000,0.896837,
4330.000,0.886761,
4329.000,0.876037,
4328.000,0.86562,
4327.000,0.856485,
4326.000,0.848934,
4325.000,0.842377,
4324.000,0.835725,
4323.000,0.828115,
4322.000,0.819456,
4321.000,0.81046,
4320.000,0.802089,
4319.000,0.794884,
4318.000,0.788649,
4317.000,0.782674,
4316.000,0.776314,
4315.000,0.769409,
4314.000,0.762266,
4313.000,0.755284,
4312.000,0.748623,
4311.000,0.742206,
4310.000,0.73595,
4309.000,0.729918,
4308.000,0.724276,
4307.000,0.719163,
4306.000,0.714581,
4305.000,0.710329,
4304.000,0.706029,
4303.000,0.701303,
4302.000,0.696006,
4301.000,0.690255,
4300.000,0.684232,
4299.000,0.678065,
4298.000,0.671965,
4297.000,0.666374,
4296.000,0.661796,
4295.000,0.658361,
4294.000,0.655583,
4293.000,0.652663,
4292.000,0.649108,
4291.000,0.645066,
4290.000,0.641024,
4289.000,0.637247,
4288.000,0.633633,
4287.000,0.630126,
4286.000,0.627056,
4285.000,0.624802,
4284.000,0.623165,
4283.000,0.621338,
4282.000,0.618606,
4281.000,0.614937,
4280.000,0.610881,
4279.000,0.607018,
4278.000,0.603605,
4277.000,0.600664,
4276.000,0.598215,
4275.000,0.596377,
4274.000,0.595287,
4273.000,0.594873,
4272.000,0.594682,
4271.000,0.594001,
4270.000,0.592291,
4269.000,0.589491,
4268.000,0.586007,
4267.000,0.582489,
4266.000,0.579588,
4265.000,0.577751,
4264.000,0.576971,
4263.000,0.576708,
4262.000,0.576219,
4261.000,0.575137,
4260.000,0.573764,
4259.000,0.572809,
4258.000,0.57274,
4257.000,0.573322,
4256.000,0.57376,
4255.000,0.57336,
4254.000,0.572121,
4253.000,0.570642,
4252.000,0.569547,
4251.000,0.569062,
4250.000,0.569101,
4249.000,0.569515,
4248.000,0.570091,
4247.000,0.570485,
4246.000,0.570424,
4245.000,0.569972,
4244.000,0.569456,
4243.000,0.569113,
4242.000,0.56897,
4241.000,0.569078,
4240.000,0.569673,
4239.000,0.57092,
4238.000,0.57252,
4237.000,0.57373,
4236.000,0.573974,
4235.000,0.573438,
4234.000,0.572972,
4233.000,0.573306,
4232.000,0.574375,
4231.000,0.575507,
4230.000,0.576267,
4229.000,0.576947,
4228.000,0.578155,
4227.000,0.580086,
4226.000,0.58234,
4225.000,0.584408,
4224.000,0.586124,
4223.000,0.58767,
4222.000,0.589302,
4221.000,0.591071,
4220.000,0.592692,
4219.000,0.593706,
4218.000,0.593907,
4217.000,0.593635,
4216.000,0.593577,
4215.000,0.594275,
4214.000,0.595937,
4213.000,0.598618,
4212.000,0.602318,
4211.000,0.60681,
4210.000,0.61154,
4209.000,0.615893,
4208.000,0.61956,
4207.000,0.62267,
4206.000,0.625621,
4205.000,0.628771,
4204.000,0.632149,
4203.000,0.635386,
4202.000,0.638033,
4201.000,0.640114,
4200.000,0.642328,
4199.000,0.645546,
4198.000,0.650026,
4197.000,0.655117,
4196.000,0.65979,
4195.000,0.663473,
4194.000,0.666448,
4193.000,0.669504,
4192.000,0.673245,
4191.000,0.677711,
4190.000,0.682614,
4189.000,0.687776,
4188.000,0.693193,
4187.000,0.698778,
4186.000,0.704232,
4185.000,0.709274,
4184.000,0.713932,
4183.000,0.718579,
4182.000,0.723706,
4181.000,0.729629,
4180.000,0.736267,
4179.000,0.743141,
4178.000,0.749706,
4177.000,0.755764,
4176.000,0.761527,
4175.000,0.767259,
4174.000,0.772979,
4173.000,0.778549,
4172.000,0.783959,
4171.000,0.789422,
4170.000,0.795238,
4169.000,0.801635,
4168.000,0.808668,
4167.000,0.816216,
4166.000,0.824105,
4165.000,0.832282,
4164.000,0.840834,
4163.000,0.849731,
4162.000,0.858603,
4161.000,0.866906,
4160.000,0.874384,
4159.000,0.881404,
4158.000,0.888784,
4157.000,0.897193,
4156.000,0.906563,
4155.000,0.91608,
4154.000,0.924856,
4153.000,0.932717,
4152.000,0.940343,
4151.000,0.948601,
4150.000,0.957767,
4149.000,0.967412,
4148.000,0.976969,
4147.000,0.98632,
4146.000,0.995837,
4145.000,1.00593,
4144.000,1.0166,
4143.000,1.02736,
4142.000,1.03773,
4141.000,1.04769,
4140.000,1.05771,
4139.000,1.06827,
4138.000,1.07951,
4137.000,1.09122,
4136.000,1.10312,
4135.000,1.11495,
4134.000,1.12641,
4133.000,1.13728,
4132.000,1.14773,
4131.000,1.15839,
4130.000,1.16994,
4129.000,1.18257,
4128.000,1.19582,
4127.000,1.20895,
4126.000,1.22156,
4125.000,1.23377,
4124.000,1.24591,
4123.000,1.25815,
4122.000,1.27041,
4121.000,1.2827,
4120.000,1.29524,
4119.000,1.30837,
4118.000,1.32227,
4117.000,1.33668,
4116.000,1.35096,
4115.000,1.36449,
4114.000,1.37717,
4113.000,1.38967,
4112.000,1.40301,
4111.000,1.41781,
4110.000,1.43382,
4109.000,1.45031,
4108.000,1.4667,
4107.000,1.48272,
4106.000,1.49827,
4105.000,1.51322,
4104.000,1.52759,
4103.000,1.54178,
4102.000,1.55637,
4101.000,1.57172,
4100.000,1.58769,
4099.000,1.60381,
4098.000,1.6198,
4097.000,1.6358,
4096.000,1.65215,
4095.000,1.66905,
4094.000,1.68641,
4093.000,1.70398,
4092.000,1.7215,
4091.000,1.73879,
4090.000,1.75571,
4089.000,1.77226,
4088.000,1.78872,
4087.000,1.80547,
4086.000,1.82272,
4085.000,1.84027,
4084.000,1.8578,
4083.000,1.87522,
4082.000,1.89281,
4081.000,1.91086,
4080.000,1.92932,
4079.000,1.94787,
4078.000,1.96644,
4077.000,1.98541,
4076.000,2.00538,
4075.000,2.02655,
4074.000,2.0485,
4073.000,2.07053,
4072.000,2.09227,
4071.000,2.11378,
4070.000,2.13526,
4069.000,2.1566,
4068.000,2.17756,
4067.000,2.19823,
4066.000,2.21924,
4065.000,2.24125,
4064.000,2.26432,
4063.000,2.288,
4062.000,2.31197,
4061.000,2.33641,
4060.000,2.3615,
4059.000,2.38687,
4058.000,2.41175,
4057.000,2.43583,
4056.000,2.45961,
4055.000,2.48394,
4054.000,2.5092,
4053.000,2.5351,
4052.000,2.56109,
4051.000,2.58683,
4050.000,2.61227,
4049.000,2.63758,
4048.000,2.66307,
4047.000,2.68918,
4046.000,2.71628,
4045.000,2.74433,
4044.000,2.7729,
4043.000,2.80153,
4042.000,2.83018,
4041.000,2.85918,
4040.000,2.88896,
4039.000,2.91964,
4038.000,2.95103,
4037.000,2.98298,
4036.000,3.01545,
4035.000,3.0485,
4034.000,3.08213,
4033.000,3.11611,
4032.000,3.15017,
4031.000,3.18406,
4030.000,3.21782,
4029.000,3.25168,
4028.000,3.28595,
4027.000,3.32089,
4026.000,3.35663,
4025.000,3.39318,
4024.000,3.43046,
4023.000,3.46828,
4022.000,3.50645,
4021.000,3.54471,
4020.000,3.58274,
4019.000,3.62027,
4018.000,3.65744,
4017.000,3.69488,
4016.000,3.73308,
4015.000,3.77189,
4014.000,3.81058,
4013.000,3.8487,
4012.000,3.88675,
4011.000,3.9256,
4010.000,3.96557,
4009.000,4.00608,
4008.000,4.04638,
4007.000,4.08639,
4006.000,4.12655,
4005.000,4.16709,
4004.000,4.20759,
4003.000,4.24752,
4002.000,4.28688,
4001.000,4.32615,
4000.000,4.36569,
3999.000,4.4054,
3998.000,4.44479,
3997.000,4.48331,
3996.000,4.52058,
3995.000,4.55647,
3994.000,4.59108,
3993.000,4.62464,
3992.000,4.65721,
3991.000,4.68844,
3990.000,4.71778,
3989.000,4.74487,
3988.000,4.76981,
3987.000,4.79284,
3986.000,4.81406,
3985.000,4.83325,
3984.000,4.85006,
3983.000,4.86435,
3982.000,4.87628,
3981.000,4.88623,
3980.000,4.89446,
3979.000,4.90078,
3978.000,4.90478,
3977.000,4.90611,
3976.000,4.90481,
3975.000,4.90126,
3974.000,4.89582,
3973.000,4.88869,
3972.000,4.87997,
3971.000,4.86971,
3970.000,4.85792,
3969.000,4.84448,
3968.000,4.82909,
3967.000,4.81128,
3966.000,4.79053,
3965.000,4.76673,
3964.000,4.74055,
3963.000,4.71315,
3962.000,4.68543,
3961.000,4.65743,
3960.000,4.6286,
3959.000,4.59849,
3958.000,4.56699,
3957.000,4.5342,
3956.000,4.50006,
3955.000,4.46455,
3954.000,4.42798,
3953.000,4.39102,
3952.000,4.35434,
3951.000,4.31828,
3950.000,4.28282,
3949.000,4.24792,
3948.000,4.21366,
3947.000,4.17998,
3946.000,4.14633,
3945.000,4.11195,
3944.000,4.07644,
3943.000,4.04036,
3942.000,4.00482,
3941.000,3.9705,
3940.000,3.937,
3939.000,3.90321,
3938.000,3.86819,
3937.000,3.83165,
3936.000,3.79401,
3935.000,3.7562,
3934.000,3.71943,
3933.000,3.6847,
3932.000,3.65223,
3931.000,3.62108,
3930.000,3.58955,
3929.000,3.55631,
3928.000,3.52119,
3927.000,3.48494,
3926.000,3.44868,
3925.000,3.4135,
3924.000,3.38015,
3923.000,3.34822,
3922.000,3.31611,
3921.000,3.28225,
3920.000,3.24654,
3919.000,3.21058,
3918.000,3.17637,
3917.000,3.14463,
3916.000,3.11434,
3915.000,3.08366,
3914.000,3.0516,
3913.000,3.01873,
3912.000,2.98641,
3911.000,2.95531,
3910.000,2.92447,
3909.000,2.89229,
3908.000,2.85819,
3907.000,2.82326,
3906.000,2.78925,
3905.000,2.75716,
3904.000,2.72681,
3903.000,2.69732,
3902.000,2.66773,
3901.000,2.63757,
3900.000,2.60713,
3899.000,2.5771,
3898.000,2.54784,
3897.000,2.51867,
3896.000,2.48829,
3895.000,2.45593,
3894.000,2.42243,
3893.000,2.38995,
3892.000,2.36048,
3891.000,2.33401,
3890.000,2.30806,
3889.000,2.27969,
3888.000,2.2483,
3887.000,2.216,
3886.000,2.18545,
3885.000,2.1578,
3884.000,2.13204,
3883.000,2.10635,
3882.000,2.0799,
3881.000,2.05319,
3880.000,2.02693,
3879.000,2.00093,
3878.000,1.97423,
3877.000,1.94628,
3876.000,1.91758,
3875.000,1.8894,
3874.000,1.86285,
3873.000,1.83832,
3872.000,1.81529,
3871.000,1.79281,
3870.000,1.76999,
3869.000,1.74666,
3868.000,1.72332,
3867.000,1.70027,
3866.000,1.67708,
3865.000,1.65302,
3864.000,1.62821,
3863.000,1.60379,
3862.000,1.58072,
3861.000,1.55883,
3860.000,1.53728,
3859.000,1.5158,
3858.000,1.49449,
3857.000,1.47317,
3856.000,1.45231,
3855.000,1.43305,
3854.000,1.41533,
3853.000,1.39784,
3852.000,1.37967,
3851.000,1.36097,
3850.000,1.3422,
3849.000,1.32356,
3848.000,1.30494,
3847.000,1.28637,
3846.000,1.26818,
3845.000,1.25097,
3844.000,1.23512,
3843.000,1.22032,
3842.000,1.20579,
3841.000,1.19095,
3840.000,1.1758,
3839.000,1.16041,
3838.000,1.14445,
3837.000,1.12764,
3836.000,1.11054,
3835.000,1.09415,
3834.000,1.07894,
3833.000,1.06448,
3832.000,1.05018,
3831.000,1.03597,
3830.000,1.02243,
3829.000,1.0101,
3828.000,0.998932,
3827.000,0.988093,
3826.000,0.976475,
3825.000,0.963441,
3824.000,0.949402,
3823.000,0.935359,
3822.000,0.921744,
3821.000,0.908314,
3820.000,0.89503,
3819.000,0.88232,
3818.000,0.870391,
3817.000,0.858799,
3816.000,0.846948,
3815.000,0.834944,
3814.000,0.823521,
3813.000,0.813009,
3812.000,0.80294,
3811.000,0.792703,
3810.000,0.782254,
3809.000,0.772011,
3808.000,0.762064,
3807.000,0.751883,
3806.000,0.741102,
3805.000,0.73021,
3804.000,0.720105,
3803.000,0.711102,
3802.000,0.702535,
3801.000,0.693429,
3800.000,0.683544,
3799.000,0.673433,
3798.000,0.663712,
3797.000,0.654687,
3796.000,0.64633,
3795.000,0.638301,
3794.000,0.630185,
3793.000,0.621873,
3792.000,0.613604,
3791.000,0.605569,
3790.000,0.597616,
3789.000,0.589589,
3788.000,0.581815,
3787.000,0.574933,
3786.000,0.569151,
3785.000,0.56394,
3784.000,0.558557,
3783.000,0.552697,
3782.000,0.546514,
3781.000,0.540124,
3780.000,0.53337,
3779.000,0.526147,
3778.000,0.518765,
3777.000,0.511769,
3776.000,0.50543,
3775.000,0.499554,
3774.000,0.493816,
3773.000,0.488176,
3772.000,0.482878,
3771.000,0.478081,
3770.000,0.473593,
3769.000,0.469091,
3768.000,0.464431,
3767.000,0.459661,
3766.000,0.45489,
3765.000,0.45035,
3764.000,0.446439,
3763.000,0.443402,
3762.000,0.44096,
3761.000,0.438343,
3760.000,0.434769,
3759.000,0.430071,
3758.000,0.424821,
3757.000,0.419799,
3756.000,0.415347,
3755.000,0.411276,
3754.000,0.407334,
3753.000,0.403544,
3752.000,0.400088,
3751.000,0.397034,
3750.000,0.394435,
3749.000,0.392598,
3748.000,0.391689,
3747.000,0.391225,
3746.000,0.390299,
3745.000,0.388001,
3744.000,0.384144,
3743.000,0.379757,
3742.000,0.376034,
3741.000,0.37316,
3740.000,0.370721,
3739.000,0.368677,
3738.000,0.367476,
3737.000,0.367209,
3736.000,0.366939,
3735.000,0.365305,
3734.000,0.361915,
3733.000,0.357773,
3732.000,0.354182,
3731.000,0.351561,
3730.000,0.349479,
3729.000,0.34748,
3728.000,0.345503,
3727.000,0.343626,
3726.000,0.341785,
3725.000,0.339874,
3724.000,0.337968,
3723.000,0.336313,
3722.000,0.335123,
3721.000,0.334435,
3720.000,0.334062,
3719.000,0.333636,
3718.000,0.33283,
3717.000,0.331602,
3716.000,0.330201,
3715.000,0.328919,
3714.000,0.327946,
3713.000,0.327346,
3712.000,0.326919,
3711.000,0.326106,
3710.000,0.324274,
3709.000,0.321449,
3708.000,0.3186,
3707.000,0.316888,
3706.000,0.31664,
3705.000,0.317121,
3704.000,0.317342,
3703.000,0.316962,
3702.000,0.316395,
3701.000,0.316196,
3700.000,0.316468,
3699.000,0.31685,
3698.000,0.316983,
3697.000,0.316769,
3696.000,0.316302,
3695.000,0.315754,
3694.000,0.315333,
3693.000,0.315165,
3692.000,0.315079,
3691.000,0.314638,
3690.000,0.313524,
3689.000,0.311912,
3688.000,0.310344,
3687.000,0.309261,
3686.000,0.308758,
3685.000,0.308663,
3684.000,0.308653,
3683.000,0.308324,
3682.000,0.307517,
3681.000,0.306656,
3680.000,0.30653,
3679.000,0.307577,
3678.000,0.309503,
3677.000,0.311549,
3676.000,0.312974,
3675.000,0.313524,
3674.000,0.313579,
3673.000,0.313733,
3672.000,0.314223,
3671.000,0.31479,
3670.000,0.314976,
3669.000,0.314647,
3668.000,0.314137,
3667.000,0.313892,
3666.000,0.314164,
3665.000,0.315024,
3664.000,0.316347,
3663.000,0.31769,
3662.000,0.318444,
3661.000,0.318397,
3660.000,0.318094,
3659.000,0.318503,
3658.000,0.320206,
3657.000,0.322891,
3656.000,0.325612,
3655.000,0.327592,
3654.000,0.328747,
3653.000,0.329476,
3652.000,0.330204,
3651.000,0.331029,
3650.000,0.331687,
3649.000,0.33191,
3648.000,0.331781,
3647.000,0.331743,
3646.000,0.332257,
3645.000,0.333418,
3644.000,0.334878,
3643.000,0.336215,
3642.000,0.337389,
3641.000,0.338789,
3640.000,0.340762,
3639.000,0.343252,
3638.000,0.345996,
3637.000,0.348864,
3636.000,0.351764,
3635.000,0.354349,
3634.000,0.356216,
3633.000,0.357444,
3632.000,0.358722,
3631.000,0.36081,
3630.000,0.363773,
3629.000,0.3668,
3628.000,0.368916,
3627.000,0.369879,
3626.000,0.370279,
3625.000,0.370958,
3624.000,0.372553,
3623.000,0.375242,
3622.000,0.378664,
3621.000,0.382139,
3620.000,0.385095,
3619.000,0.387457,
3618.000,0.389691,
3617.000,0.392405,
3616.000,0.395832,
3615.000,0.399705,
3614.000,0.403511,
3613.000,0.406813,
3612.000,0.409464,
3611.000,0.411704,
3610.000,0.414027,
3609.000,0.416801,
3608.000,0.419953,
3607.000,0.423074,
3606.000,0.425949,
3605.000,0.428884,
3604.000,0.432423,
3603.000,0.436754,
3602.000,0.441491,
3601.000,0.445981,
3600.000,0.449762,
3599.000,0.452841,
3598.000,0.455724,
3597.000,0.459189,
3596.000,0.463777,
3595.000,0.469363,
3594.000,0.475203,
3593.000,0.480595,
3592.000,0.485514,
3591.000,0.490646,
3590.000,0.496716,
3589.000,0.503552,
3588.000,0.509792,
3587.000,0.513919,
3586.000,0.515815,
3585.000,0.517027,
3584.000,0.51946,
3583.000,0.52402,
3582.000,0.530511,
3581.000,0.538212,
3580.000,0.546231,
3579.000,0.553616,
3578.000,0.559788,
3577.000,0.565086,
3576.000,0.570528,
3575.000,0.576856,
3574.000,0.58392,
3573.000,0.591175,
3572.000,0.59849,
3571.000,0.606258,
3570.000,0.6148,
3569.000,0.623748,
3568.000,0.632056,
3567.000,0.638794,
3566.000,0.643957,
3565.000,0.648478,
3564.000,0.653497,
3563.000,0.659653,
3562.000,0.666906,
3561.000,0.674804,
3560.000,0.6829,
3559.000,0.691035,
3558.000,0.699316,
3557.000,0.707836,
3556.000,0.716475,
3555.000,0.725052,
3554.000,0.7336,
3553.000,0.742321,
3552.000,0.751223,
3551.000,0.759932,
3550.000,0.768004,
3549.000,0.77528,
3548.000,0.781827,
3547.000,0.787767,
3546.000,0.793441,
3545.000,0.799566,
3544.000,0.806856,
3543.000,0.815452,
3542.000,0.824927,
3541.000,0.834792,
3540.000,0.844791,
3539.000,0.854727,
3538.000,0.864326,
3537.000,0.873438,
3536.000,0.882201,
3535.000,0.890864,
3534.000,0.89957,
3533.000,0.908437,
3532.000,0.917757,
3531.000,0.927884,
3530.000,0.938869,
3529.000,0.950279,
3528.000,0.961461,
3527.000,0.972014,
3526.000,0.982008,
3525.000,0.991818,
3524.000,1.00183,
3523.000,1.01228,
3522.000,1.02318,
3521.000,1.0342,
3520.000,1.04478,
3519.000,1.05457,
3518.000,1.06389,
3517.000,1.07356,
3516.000,1.08409,
3515.000,1.09527,
3514.000,1.10662,
3513.000,1.11796,
3512.000,1.12955,
3511.000,1.14153,
3510.000,1.15373,
3509.000,1.16594,
3508.000,1.17814,
3507.000,1.19048,
3506.000,1.20318,
3505.000,1.21622,
3504.000,1.22933,
3503.000,1.24224,
3502.000,1.25507,
3501.000,1.26836,
3500.000,1.28245,
3499.000,1.29712,
3498.000,1.31193,
3497.000,1.32672,
3496.000,1.3416,
3495.000,1.35667,
3494.000,1.37191,
3493.000,1.38749,
3492.000,1.40365,
3491.000,1.42028,
3490.000,1.43686,
3489.000,1.45294,
3488.000,1.46858,
3487.000,1.48426,
3486.000,1.50052,
3485.000,1.51765,
3484.000,1.53565,
3483.000,1.55427,
3482.000,1.57323,
3481.000,1.59252,
3480.000,1.61229,
3479.000,1.63243,
3478.000,1.65254,
3477.000,1.67225,
3476.000,1.6915,
3475.000,1.71059,
3474.000,1.72991,
3473.000,1.74982,
3472.000,1.77044,
3471.000,1.7917,
3470.000,1.81352,
3469.000,1.8359,
3468.000,1.85873,
3467.000,1.88166,
3466.000,1.90432,
3465.000,1.92675,
3464.000,1.94935,
3463.000,1.97237,
3462.000,1.99565,
3461.000,2.0189,
3460.000,2.0421,
3459.000,2.06546,
3458.000,2.08926,
3457.000,2.11361,
3456.000,2.13855,
3455.000,2.16396,
3454.000,2.18955,
3453.000,2.21502,
3452.000,2.24005,
3451.000,2.26446,
3450.000,2.28827,
3449.000,2.31184,
3448.000,2.3356,
3447.000,2.35972,
3446.000,2.38386,
3445.000,2.40757,
3444.000,2.43073,
3443.000,2.45356,
3442.000,2.47625,
3441.000,2.49859,
3440.000,2.52015,
3439.000,2.54046,
3438.000,2.5592,
3437.000,2.57634,
3436.000,2.59213,
3435.000,2.60701,
3434.000,2.62126,
3433.000,2.63451,
3432.000,2.64599,
3431.000,2.65515,
3430.000,2.66223,
3429.000,2.66787,
3428.000,2.67239,
3427.000,2.67551,
3426.000,2.67664,
3425.000,2.67529,
3424.000,2.67116,
3423.000,2.66426,
3422.000,2.65502,
3421.000,2.64412,
3420.000,2.63195,
3419.000,2.61843,
3418.000,2.60328,
3417.000,2.58661,
3416.000,2.56891,
3415.000,2.55066,
3414.000,2.53215,
3413.000,2.51357,
3412.000,2.49521,
3411.000,2.4774,
3410.000,2.46059,
3409.000,2.44533,
3408.000,2.43215,
3407.000,2.42126,
3406.000,2.41255,
3405.000,2.40591,
3404.000,2.40155,
3403.000,2.39979,
3402.000,2.40053,
3401.000,2.40323,
3400.000,2.40727,
3399.000,2.41218,
3398.000,2.41755,
3397.000,2.4227,
3396.000,2.42683,
3395.000,2.42949,
3394.000,2.43082,
3393.000,2.43131,
3392.000,2.43124,
3391.000,2.43032,
3390.000,2.42777,
3389.000,2.42279,
3388.000,2.41511,
3387.000,2.40517,
3386.000,2.39389,
3385.000,2.38198,
3384.000,2.36957,
3383.000,2.3563,
3382.000,2.34187,
3381.000,2.32642,
3380.000,2.3103,
3379.000,2.29366,
3378.000,2.27625,
3377.000,2.2577,
3376.000,2.23801,
3375.000,2.21772,
3374.000,2.19745,
3373.000,2.17745,
3372.000,2.15744,
3371.000,2.13697,
3370.000,2.11579,
3369.000,2.094,
3368.000,2.07182,
3367.000,2.04944,
3366.000,2.02691,
3365.000,2.00433,
3364.000,1.98197,
3363.000,1.96024,
3362.000,1.93927,
3361.000,1.91865,
3360.000,1.89767,
3359.000,1.87595,
3358.000,1.8537,
3357.000,1.83134,
3356.000,1.80906,
3355.000,1.78689,
3354.000,1.76501,
3353.000,1.74368,
3352.000,1.72293,
3351.000,1.7025,
3350.000,1.68213,
3349.000,1.66186,
3348.000,1.64179,
3347.000,1.62182,
3346.000,1.60162,
3345.000,1.58099,
3344.000,1.56007,
3343.000,1.5392,
3342.000,1.51864,
3341.000,1.49843,
3340.000,1.47847,
3339.000,1.45884,
3338.000,1.43985,
3337.000,1.42161,
3336.000,1.40378,
3335.000,1.38575,
3334.000,1.36726,
3333.000,1.34874,
3332.000,1.33078,
3331.000,1.31343,
3330.000,1.29611,
3329.000,1.27824,
3328.000,1.25981,
3327.000,1.24137,
3326.000,1.22361,
3325.000,1.20687,
3324.000,1.19092,
3323.000,1.1752,
3322.000,1.1593,
3321.000,1.14322,
3320.000,1.12702,
3319.000,1.1106,
3318.000,1.09385,
3317.000,1.07702,
3316.000,1.06055,
3315.000,1.04466,
3314.000,1.02945,
3313.000,1.01509,
3312.000,1.00152,
3311.000,0.987869,
3310.000,0.972865,
3309.000,0.956155,
3308.000,0.938897,
3307.000,0.922725,
3306.000,0.908383,
3305.000,0.895537,
3304.000,0.88351,
3303.000,0.871703,
3302.000,0.859612,
3301.000,0.847024,
3300.000,0.834285,
3299.000,0.821964,
3298.000,0.810218,
3297.000,0.798786,
3296.000,0.787517,
3295.000,0.776471,
3294.000,0.765485,
3293.000,0.754161,
3292.000,0.742461,
3291.000,0.730915,
3290.000,0.71996,
3289.000,0.709418,
3288.000,0.698939,
3287.000,0.688654,
3286.000,0.678981,
3285.000,0.669912,
3284.000,0.660911,
3283.000,0.65155,
3282.000,0.641944,
3281.000,0.632433,
3280.000,0.623082,
3279.000,0.613628,
3278.000,0.603806,
3277.000,0.593651,
3276.000,0.583536,
3275.000,0.573986,
3274.000,0.565307,
3273.000,0.557278,
3272.000,0.549251,
3271.000,0.540728,
3270.000,0.531839,
3269.000,0.523174,
3268.000,0.515133,
3267.000,0.507549,
3266.000,0.500037,
3265.000,0.492544,
3264.000,0.485365,
3263.000,0.47864,
3262.000,0.472058,
3261.000,0.465184,
3260.000,0.457914,
3259.000,0.450515,
3258.000,0.443333,
3257.000,0.436623,
3256.000,0.430568,
3255.000,0.425234,
3254.000,0.420389,
3253.000,0.415487,
3252.000,0.409972,
3251.000,0.403696,
3250.000,0.397064,
3249.000,0.390734,
3248.000,0.385073,
3247.000,0.379852,
3246.000,0.374573,
3245.000,0.369071,
3244.000,0.363644,
3243.000,0.358595,
3242.000,0.353883,
3241.000,0.349396,
3240.000,0.345241,
3239.000,0.34145,
3238.000,0.337554,
3237.000,0.332943,
3236.000,0.327697,
3235.000,0.32268,
3234.000,0.318651,
3233.000,0.315545,
3232.000,0.312795,
3231.000,0.310006,
3230.000,0.307043,
3229.000,0.303746,
3228.000,0.300008,
3227.000,0.296102,
3226.000,0.292574,
3225.000,0.289663,
3224.000,0.287063,
3223.000,0.284362,
3222.000,0.281548,
3221.000,0.278942,
3220.000,0.276685,
3219.000,0.274472,
3218.000,0.27184,
3217.000,0.268675,
3216.000,0.265371,
3215.000,0.262439,
3214.000,0.260027,
3213.000,0.257879,
3212.000,0.255778,
3211.000,0.253831,
3210.000,0.252246,
3209.000,0.250939,
3208.000,0.249534,
3207.000,0.247715,
3206.000,0.245453,
3205.000,0.242941,
3204.000,0.240441,
3203.000,0.238164,
3202.000,0.236127,
3201.000,0.234086,
3200.000,0.231817,
3199.000,0.229502,
3198.000,0.22768,
3197.000,0.226652,
3196.000,0.226055,
3195.000,0.225182,
3194.000,0.223675,
3193.000,0.221802,
3192.000,0.220081,
3191.000,0.218794,
3190.000,0.217857,
3189.000,0.217001,
3188.000,0.21598,
3187.000,0.214658,
3186.000,0.213007,
3185.000,0.211114,
3184.000,0.20919,
3183.000,0.207534,
3182.000,0.206364,
3181.000,0.205586,
3180.000,0.204737,
3179.000,0.203305,
3178.000,0.201209,
3177.000,0.199005,
3176.000,0.197537,
3175.000,0.197312,
3174.000,0.198097,
3173.000,0.199077,
3172.000,0.199438,
3171.000,0.198866,
3170.000,0.197586,
3169.000,0.196019,
3168.000,0.194507,
3167.000,0.193252,
3166.000,0.192323,
3165.000,0.191613,
3164.000,0.190935,
3163.000,0.190288,
3162.000,0.189902,
3161.000,0.189907,
3160.000,0.190093,
3159.000,0.190139,
3158.000,0.189935,
3157.000,0.189451,
3156.000,0.188446,
3155.000,0.186707,
3154.000,0.184605,
3153.000,0.183028,
3152.000,0.182551,
3151.000,0.182882,
3150.000,0.183292,
3149.000,0.183359,
3148.000,0.183087,
3147.000,0.182571,
3146.000,0.181896,
3145.000,0.181282,
3144.000,0.180963,
3143.000,0.180872,
3142.000,0.180664,
3141.000,0.180103,
3140.000,0.179288,
3139.000,0.178493,
3138.000,0.177962,
3137.000,0.177849,
3136.000,0.17816,
3135.000,0.178683,
3134.000,0.179127,
3133.000,0.179372,
3132.000,0.179465,
3131.000,0.179367,
3130.000,0.178931,
3129.000,0.178214,
3128.000,0.177616,
3127.000,0.177543,
3126.000,0.178012,
3125.000,0.17873,
3124.000,0.179399,
3123.000,0.179811,
3122.000,0.179733,
3121.000,0.17901,
3120.000,0.177861,
3119.000,0.17692,
3118.000,0.176787,
3117.000,0.17753,
3116.000,0.178671,
3115.000,0.179655,
3114.000,0.180276,
3113.000,0.180652,
3112.000,0.180922,
3111.000,0.181118,
3110.000,0.181295,
3109.000,0.181603,
3108.000,0.18208,
3107.000,0.182482,
3106.000,0.182486,
3105.000,0.182074,
3104.000,0.181583,
3103.000,0.181359,
3102.000,0.181501,
3101.000,0.181985,
3100.000,0.182846,
3099.000,0.184112,
3098.000,0.185655,
3097.000,0.187268,
3096.000,0.18882,
3095.000,0.190192,
3094.000,0.191124,
3093.000,0.191345,
3092.000,0.190906,
3091.000,0.190236,
3090.000,0.189792,
3089.000,0.189756,
3088.000,0.190147,
3087.000,0.191045,
3086.000,0.192517,
3085.000,0.194337,
3084.000,0.19602,
3083.000,0.197236,
3082.000,0.198087,
3081.000,0.198912,
3080.000,0.19991,
3079.000,0.200966,
3078.000,0.201827,
3077.000,0.202379,
3076.000,0.202804,
3075.000,0.203479,
3074.000,0.204691,
3073.000,0.206478,
3072.000,0.208716,
3071.000,0.211247,
3070.000,0.213774,
3069.000,0.215771,
3068.000,0.216782,
3067.000,0.216991,
3066.000,0.217253,
3065.000,0.218375,
3064.000,0.220454,
3063.000,0.222998,
3062.000,0.225515,
3061.000,0.227796,
3060.000,0.229833,
3059.000,0.231795,
3058.000,0.234031,
3057.000,0.236772,
3056.000,0.239758,
3055.000,0.242394,
3054.000,0.244387,
3053.000,0.246055,
3052.000,0.247971,
3051.000,0.250535,
3050.000,0.253875,
3049.000,0.257863,
3048.000,0.262039,
3047.000,0.265742,
3046.000,0.268628,
3045.000,0.270994,
3044.000,0.273463,
3043.000,0.276431,
3042.000,0.279895,
3041.000,0.283722,
3040.000,0.287879,
3039.000,0.292443,
3038.000,0.297497,
3037.000,0.302978,
3036.000,0.308566,
3035.000,0.31384,
3034.000,0.318673,
3033.000,0.323398,
3032.000,0.328416,
3031.000,0.333773,
3030.000,0.339278,
3029.000,0.344936,
3028.000,0.350996,
3027.000,0.357553,
3026.000,0.36438,
3025.000,0.371243,
3024.000,0.378216,
3023.000,0.385541,
3022.000,0.393256,
3021.000,0.401086,
3020.000,0.408694,
3019.000,0.415992,
3018.000,0.423217,
3017.000,0.430754,
3016.000,0.438929,
3015.000,0.447952,
3014.000,0.457931,
3013.000,0.468808,
3012.000,0.48022,
3011.000,0.491604,
3010.000,0.502578,
3009.000,0.513209,
3008.000,0.523882,
3007.000,0.534974,
3006.000,0.546702,
3005.000,0.559115,
3004.000,0.572079,
3003.000,0.58533,
3002.000,0.598701,
3001.000,0.612288,
3000.000,0.626268,
2999.000,0.640553,
2998.000,0.654744,
2997.000,0.668429,
2996.000,0.681489,
2995.000,0.694156,
2994.000,0.70685,
2993.000,0.719854,
2992.000,0.732982,
2991.000,0.745593,
2990.000,0.757099,
2989.000,0.767467,
2988.000,0.777067,
2987.000,0.786003,
2986.000,0.793749,
2985.000,0.799449,
2984.000,0.802513,
2983.000,0.802849,
2982.000,0.800632,
2981.000,0.795946,
2980.000,0.788448,
2979.000,0.777397,
2978.000,0.762074,
2977.000,0.742254,
2976.000,0.718253,
2975.000,0.690385,
2974.000,0.658672,
2973.000,0.623178,
2972.000,0.584534,
2971.000,0.543984,
2970.000,0.502816,
2969.000,0.461962,
2968.000,0.422024,
2967.000,0.383636,
2966.000,0.347654,
2965.000,0.31491,
2964.000,0.285727,
2963.000,0.259699,
2962.000,0.236224,
2961.000,0.215217,
2960.000,0.197156,
2959.000,0.18227,
2958.000,0.169947,
2957.000,0.159213,
2956.000,0.149598,
2955.000,0.141319,
2954.000,0.134501,
2953.000,0.128583,
2952.000,0.122685,
2951.000,0.116378,
2950.000,0.109908,
2949.000,0.103658,
2948.000,0.097668,
2947.000,0.0918149,
2946.000,0.086259,
2945.000,0.0814114,
2944.000,0.0774353,
2943.000,0.0740297,
2942.000,0.0708275,
2941.000,0.0678025,
2940.000,0.0651437,
2939.000,0.0629649,
2938.000,0.0613622,
2937.000,0.0605938,
2936.000,0.0608494,
2935.000,0.0618917,
2934.000,0.0632295,
2933.000,0.0646511,
2932.000,0.0663174,
2931.000,0.0683137,
2930.000,0.0704451,
2929.000,0.0726388,
2928.000,0.0752787,
2927.000,0.078887,
2926.000,0.0835741,
2925.000,0.0889972,
2924.000,0.0947521,
2923.000,0.100606,
2922.000,0.106476,
2921.000,0.112427,
2920.000,0.118678,
2919.000,0.125404,
2918.000,0.132545,
2917.000,0.139897,
2916.000,0.147347,
2915.000,0.154908,
2914.000,0.162632,
2913.000,0.170614,
2912.000,0.178985,
2911.000,0.187688,
2910.000,0.196334,
2909.000,0.204493,
2908.000,0.212132,
2907.000,0.219564,
2906.000,0.226945,
2905.000,0.23404,
2904.000,0.240633,
2903.000,0.247002,
2902.000,0.253811,
2901.000,0.261572,
2900.000,0.270342,
2899.000,0.279872,
2898.000,0.289835,
2897.000,0.299888,
2896.000,0.309698,
2895.000,0.319063,
2894.000,0.328024,
2893.000,0.336807,
2892.000,0.345681,
2891.000,0.354854,
2890.000,0.36442,
2889.000,0.374357,
2888.000,0.384503,
2887.000,0.394498,
2886.000,0.403694,
2885.000,0.41125,
2884.000,0.416588,
2883.000,0.419789,
2882.000,0.421369,
2881.000,0.42152,
2880.000,0.419717,
2879.000,0.415258,
2878.000,0.408037,
2877.000,0.398544,
2876.000,0.387141,
2875.000,0.373722,
2874.000,0.358164,
2873.000,0.340838,
2872.000,0.322347,
2871.000,0.302975,
2870.000,0.282734,
2869.000,0.261988,
2868.000,0.241816,
2867.000,0.223539,
2866.000,0.207974,
2865.000,0.195171,
2864.000,0.184823,
2863.000,0.176893,
2862.000,0.171762,
2861.000,0.169813,
2860.000,0.170993,
2859.000,0.174857,
2858.000,0.180948,
2857.000,0.188964,
2856.000,0.198686,
2855.000,0.210131,
2854.000,0.223827,
2853.000,0.240558,
2852.000,0.260627,
2851.000,0.283648,
2850.000,0.309237,
2849.000,0.337566,
2848.000,0.368824,
2847.000,0.402417,
2846.000,0.437236,
2845.000,0.47273,
2844.000,0.509241,
2843.000,0.547091,
2842.000,0.585701,
2841.000,0.623882,
2840.000,0.660792,
2839.000,0.696375,
2838.000,0.730923,
2837.000,0.764511,
2836.000,0.796891,
2835.000,0.827719,
2834.000,0.856702,
2833.000,0.883558,
2832.000,0.908028,
2831.000,0.930162,
2830.000,0.950622,
2829.000,0.970531,
2828.000,0.990911,
2827.000,1.01233,
2826.000,1.03516,
2825.000,1.06002,
2824.000,1.08763,
2823.000,1.11827,
2822.000,1.15164,
2821.000,1.18735,
2820.000,1.22524,
2819.000,1.26511,
2818.000,1.30629,
2817.000,1.34782,
2816.000,1.38905,
2815.000,1.42985,
2814.000,1.47021,
2813.000,1.50971,
2812.000,1.54753,
2811.000,1.58304,
2810.000,1.61625,
2809.000,1.64763,
2808.000,1.67739,
2807.000,1.70491,
2806.000,1.72915,
2805.000,1.74948,
2804.000,1.76585,
2803.000,1.77827,
2802.000,1.78635,
2801.000,1.78975,
2800.000,1.78897,
2799.000,1.78544,
2798.000,1.78091,
2797.000,1.77682,
2796.000,1.77404,
2795.000,1.77282,
2794.000,1.77287,
2793.000,1.77353,
2792.000,1.77397,
2791.000,1.77333,
2790.000,1.77092,
2789.000,1.76656,
2788.000,1.76039,
2787.000,1.75229,
2786.000,1.74166,
2785.000,1.72813,
2784.000,1.71214,
2783.000,1.69449,
2782.000,1.6757,
2781.000,1.65597,
2780.000,1.63562,
2779.000,1.61501,
2778.000,1.59412,
2777.000,1.57283,
2776.000,1.55146,
2775.000,1.53048,
2774.000,1.50973,
2773.000,1.48837,
2772.000,1.46593,
2771.000,1.44293,
2770.000,1.42029,
2769.000,1.39851,
2768.000,1.37727,
2767.000,1.35584,
2766.000,1.33366,
2765.000,1.31091,
2764.000,1.28843,
2763.000,1.26702,
2762.000,1.24667,
2761.000,1.22691,
2760.000,1.20762,
2759.000,1.18922,
2758.000,1.17181,
2757.000,1.15479,
2756.000,1.13742,
2755.000,1.11942,
2754.000,1.10088,
2753.000,1.08193,
2752.000,1.06279,
2751.000,1.04386,
2750.000,1.02535,
2749.000,1.0071,
2748.000,0.988849,
2747.000,0.970489,
2746.000,0.951906,
2745.000,0.932876,
2744.000,0.913423,
2743.000,0.89411,
2742.000,0.875669,
2741.000,0.858355,
2740.000,0.841803,
2739.000,0.825429,
2738.000,0.808844,
2737.000,0.79205,
2736.000,0.775439,
2735.000,0.759499,
2734.000,0.744358,
2733.000,0.729674,
2732.000,0.715065,
2731.000,0.700539,
2730.000,0.686354,
2729.000,0.672617,
2728.000,0.659256,
2727.000,0.646262,
2726.000,0.63367,
2725.000,0.621298,
2724.000,0.608804,
2723.000,0.596101,
2722.000,0.583531,
2721.000,0.57148,
2720.000,0.559941,
2719.000,0.548604,
2718.000,0.537332,
2717.000,0.526346,
2716.000,0.515901,
2715.000,0.50593,
2714.000,0.496095,
2713.000,0.486138,
2712.000,0.476068,
2711.000,0.466041,
2710.000,0.456224,
2709.000,0.446773,
2708.000,0.43778,
2707.000,0.429115,
2706.000,0.420447,
2705.000,0.411558,
2704.000,0.402598,
2703.000,0.39391,
2702.000,0.385634,
2701.000,0.377612,
2700.000,0.369648,
2699.000,0.361707,
2698.000,0.353873,
2697.000,0.346267,
2696.000,0.339007,
2695.000,0.332124,
2694.000,0.325447,
2693.000,0.318721,
2692.000,0.311896,
2691.000,0.305197,
2690.000,0.29886,
2689.000,0.292882,
2688.000,0.287074,
2687.000,0.281282,
2686.000,0.275458,
2685.000,0.269648,
2684.000,0.263979,
2683.000,0.258593,
2682.000,0.25352,
2681.000,0.248647,
2680.000,0.243879,
2679.000,0.239268,
2678.000,0.234916,
2677.000,0.230818,
2676.000,0.226871,
2675.000,0.223056,
2674.000,0.219514,
2673.000,0.216452,
2672.000,0.214005,
2671.000,0.212133,
2670.000,0.210569,
2669.000,0.208875,
2668.000,0.206656,
2667.000,0.203834,
2666.000,0.200698,
2665.000,0.197673,
2664.000,0.195005,
2663.000,0.192621,
2662.000,0.190268,
2661.000,0.18775,
2660.000,0.185058,
2659.000,0.182305,
2658.000,0.179636,
2657.000,0.177236,
2656.000,0.175311,
2655.000,0.173876,
2654.000,0.172559,
2653.000,0.170789,
2652.000,0.168302,
2651.000,0.165407,
2650.000,0.162702,
2649.000,0.160566,
2648.000,0.158924,
2647.000,0.1574,
2646.000,0.155633,
2645.000,0.153522,
2644.000,0.151307,
2643.000,0.149415,
2642.000,0.148115,
2641.000,0.147291,
2640.000,0.146532,
2639.000,0.145449,
2638.000,0.143912,
2637.000,0.142099,
2636.000,0.140372,
2635.000,0.139003,
2634.000,0.137904,
2633.000,0.136678,
2632.000,0.135054,
2631.000,0.133204,
2630.000,0.131564,
2629.000,0.130411,
2628.000,0.129768,
2627.000,0.129561,
2626.000,0.129565,
2625.000,0.129205,
2624.000,0.127839,
2623.000,0.125472,
2622.000,0.123,
2621.000,0.121454,
2620.000,0.121051,
2619.000,0.121118,
2618.000,0.120809,
2617.000,0.119754,
2616.000,0.118174,
2615.000,0.116673,
2614.000,0.115842,
2613.000,0.115766,
2612.000,0.115804,
2611.000,0.115117,
2610.000,0.113542,
2609.000,0.111779,
2608.000,0.110614,
2607.000,0.11011,
2606.000,0.109715,
2605.000,0.109021,
2604.000,0.10819,
2603.000,0.107642,
2602.000,0.107511,
2601.000,0.107482,
2600.000,0.107095,
2599.000,0.106171,
2598.000,0.104962,
2597.000,0.103921,
2596.000,0.103341,
2595.000,0.103191,
2594.000,0.103213,
2593.000,0.103131,
2592.000,0.10282,
2591.000,0.102379,
2590.000,0.102031,
2589.000,0.101863,
2588.000,0.101683,
2587.000,0.101222,
2586.000,0.100474,
2585.000,0.0997077,
2584.000,0.0991531,
2583.000,0.098806,
2582.000,0.0985317,
2581.000,0.0981921,
2580.000,0.0976415,
2579.000,0.0968189,
2578.000,0.0959376,
2577.000,0.0953836,
2576.000,0.0952867,
2575.000,0.0953619,
2574.000,0.0953002,
2573.000,0.0951577,
2572.000,0.0951683,
2571.000,0.0952851,
2570.000,0.0951527,
2569.000,0.0945323,
2568.000,0.0936072,
2567.000,0.0928472,
2566.000,0.0926544,
2565.000,0.0930986,
2564.000,0.0938555,
2563.000,0.0943989,
2562.000,0.0943924,
2561.000,0.0939433,
2560.000,0.0933992,
2559.000,0.092932,
2558.000,0.0924327,
2557.000,0.0917734,
2556.000,0.0910314,
2555.000,0.0904555,
2554.000,0.0902829,
2553.000,0.0905443,
2552.000,0.090967,
2551.000,0.0911535,
2550.000,0.09099,
2549.000,0.0908097,
2548.000,0.0909707,
2547.000,0.0913143,
2546.000,0.0912652,
2545.000,0.0905033,
2544.000,0.0893402,
2543.000,0.0883544,
2542.000,0.0878756,
2541.000,0.0879128,
2540.000,0.0883213,
2539.000,0.0888333,
2538.000,0.0890941,
2537.000,0.088918,
2536.000,0.0884884,
2535.000,0.0881574,
2534.000,0.0880319,
2533.000,0.0879112,
2532.000,0.0876534,
2531.000,0.0874215,
2530.000,0.0874467,
2529.000,0.0876707,
2528.000,0.0878171,
2527.000,0.0877963,
2526.000,0.0878474,
2525.000,0.0881681,
2524.000,0.0885607,
2523.000,0.0886428,
2522.000,0.0883429,
2521.000,0.0879989,
2520.000,0.0879406,
2519.000,0.0881938,
2518.000,0.0886738,
2517.000,0.0893805,
2516.000,0.0901814,
2515.000,0.0906297,
2514.000,0.0903461,
2513.000,0.0895348,
2512.000,0.08888,
2511.000,0.0889009,
2510.000,0.0895486,
2509.000,0.0903882,
2508.000,0.0909377,
2507.000,0.0908806,
2506.000,0.0902756,
2505.000,0.0896476,
2504.000,0.0896139,
2503.000,0.0902958,
2502.000,0.0912649,
2501.000,0.0921404,
2500.000,0.0929657,
2499.000,0.0938091,
2498.000,0.0942973,
2497.000,0.0939462,
2496.000,0.0928764,
2495.000,0.0918495,
2494.000,0.0915608,
2493.000,0.0920933,
2492.000,0.093031,
2491.000,0.0938656,
2490.000,0.0942903,
2489.000,0.0943627,
2488.000,0.0944996,
2487.000,0.0951216,
2486.000,0.0961696,
2485.000,0.0970906,
2484.000,0.0973925,
2483.000,0.0971369,
2482.000,0.0968049,
2481.000,0.0967967,
2480.000,0.0971661,
2479.000,0.0977185,
2478.000,0.0982258,
2477.000,0.098565,
2476.000,0.0987369,
2475.000,0.0987748,
2474.000,0.0986461,
2473.000,0.0983259,
2472.000,0.098017,
2471.000,0.0981719,
2470.000,0.0991222,
2469.000,0.100666,
2468.000,0.102167,
2467.000,0.103144,
2466.000,0.103657,
2465.000,0.104095,
2464.000,0.104714,
2463.000,0.105469,
2462.000,0.106246,
2461.000,0.10714,
2460.000,0.108368,
2459.000,0.109919,
2458.000,0.111417,
2457.000,0.112419,
2456.000,0.112811,
2455.000,0.112861,
2454.000,0.112912,
2453.000,0.113109,
2452.000,0.113445,
2451.000,0.113904,
2450.000,0.114442,
2449.000,0.114934,
2448.000,0.115301,
2447.000,0.115678,
2446.000,0.116292,
2445.000,0.117199,
2444.000,0.118286,
2443.000,0.119531,
2442.000,0.121081,
2441.000,0.122965,
2440.000,0.124914,
2439.000,0.126637,
2438.000,0.128161,
2437.000,0.129723,
2436.000,0.131371,
2435.000,0.132868,
2434.000,0.133999,
2433.000,0.1348,
2432.000,0.13545,
2431.000,0.136103,
2430.000,0.136926,
2429.000,0.138128,
2428.000,0.139791,
2427.000,0.141717,
2426.000,0.143605,
2425.000,0.145357,
2424.000,0.147097,
2423.000,0.148901,
2422.000,0.150689,
2421.000,0.152433,
2420.000,0.154287,
2419.000,0.156346,
2418.000,0.158367,
2417.000,0.15996,
2416.000,0.161122,
2415.000,0.162423,
2414.000,0.1645,
2413.000,0.167417,
2412.000,0.170629,
2411.000,0.173508,
2410.000,0.175794,
2409.000,0.177626,
2408.000,0.179385,
2407.000,0.181546,
2406.000,0.18445,
2405.000,0.188036,
2404.000,0.191845,
2403.000,0.19541,
2402.000,0.19862,
2401.000,0.201678,
2400.000,0.20487,
2399.000,0.208462,
2398.000,0.212644,
2397.000,0.217297,
2396.000,0.221869,
2395.000,0.225712,
2394.000,0.22867,
2393.000,0.231259,
2392.000,0.234239,
2391.000,0.23808,
2390.000,0.242745,
2389.000,0.247843,
2388.000,0.252944,
2387.000,0.257875,
2386.000,0.2628,
2385.000,0.267986,
2384.000,0.273547,
2383.000,0.279453,
2382.000,0.285684,
2381.000,0.292197,
2380.000,0.298791,
2379.000,0.305233,
2378.000,0.311562,
2377.000,0.318065,
2376.000,0.324866,
2375.000,0.331791,
2374.000,0.338691,
2373.000,0.345718,
2372.000,0.353117,
2371.000,0.360922,
2370.000,0.369102,
2369.000,0.377809,
2368.000,0.386949,
2367.000,0.395588,
2366.000,0.40254,
2365.000,0.407929,
2364.000,0.413056,
2363.000,0.418928,
2362.000,0.425716,
2361.000,0.4334,
2360.000,0.440938,
2359.000,0.449786,
2358.000,0.456238,
2357.000,0.465206,
2356.000,0.465052,
2355.000,0.45072,
2354.000,0.461914,
2353.000,0.469257,
2352.000,0.479422,
2351.000,0.488523,
2350.000,0.499127,
2349.000,0.508978,
2348.000,0.520731,
2347.000,0.529112,
2346.000,0.54385,
2345.000,0.573089,
2344.000,0.58157,
2343.000,0.592792,
2342.000,0.601611,
2341.000,0.610923,
2340.000,0.619607,
2339.000,0.628271,
2338.000,0.636919,
2337.000,0.646271,
2336.000,0.657079,
2335.000,0.668989,
2334.000,0.680845,
2333.000,0.691251,
2332.000,0.700968,
2331.000,0.710788,
2330.000,0.721951,
2329.000,0.734585,
2328.000,0.74761,
2327.000,0.760523,
2326.000,0.772366,
2325.000,0.784269,
2324.000,0.796862,
2323.000,0.810544,
2322.000,0.824909,
2321.000,0.839098,
2320.000,0.853413,
2319.000,0.86768,
2318.000,0.882182,
2317.000,0.896433,
2316.000,0.911024,
2315.000,0.926441,
2314.000,0.943059,
2313.000,0.960109,
2312.000,0.976685,
2311.000,0.992353,
2310.000,1.00728,
2309.000,1.02204,
2308.000,1.03712,
2307.000,1.053,
2306.000,1.06968,
2305.000,1.08682,
2304.000,1.10401,
2303.000,1.1209,
2302.000,1.13749,
2301.000,1.15375,
2300.000,1.16997,
2299.000,1.18646,
2298.000,1.20336,
2297.000,1.22044,
2296.000,1.23733,
2295.000,1.25404,
2294.000,1.27043,
2293.000,1.28636,
2292.000,1.30151,
2291.000,1.31617,
2290.000,1.33077,
2289.000,1.3457,
2288.000,1.36081,
2287.000,1.37587,
2286.000,1.39077,
2285.000,1.40564,
2284.000,1.42041,
2283.000,1.43455,
2282.000,1.44729,
2281.000,1.4581,
2280.000,1.46717,
2279.000,1.47493,
2278.000,1.48156,
2277.000,1.48657,
2276.000,1.48952,
2275.000,1.49043,
2274.000,1.48969,
2273.000,1.48773,
2272.000,1.48482,
2271.000,1.48114,
2270.000,1.47664,
2269.000,1.47111,
2268.000,1.46444,
2267.000,1.45666,
2266.000,1.4478,
2265.000,1.43777,
2264.000,1.42648,
2263.000,1.41412,
2262.000,1.40088,
2261.000,1.38697,
2260.000,1.37247,
2259.000,1.35723,
2258.000,1.341,
2257.000,1.3237,
2256.000,1.30582,
2255.000,1.28803,
2254.000,1.27061,
2253.000,1.2533,
2252.000,1.23584,
2251.000,1.2183,
2250.000,1.20067,
2249.000,1.18275,
2248.000,1.1643,
2247.000,1.14545,
2246.000,1.1265,
2245.000,1.10765,
2244.000,1.08899,
2243.000,1.07071,
2242.000,1.05291,
2241.000,1.03544,
2240.000,1.01797,
2239.000,1.00033,
2238.000,0.982693,
2237.000,0.965269,
2236.000,0.948142,
2235.000,0.931195,
2234.000,0.91417,
2233.000,0.896841,
2232.000,0.879288,
2231.000,0.861999,
2230.000,0.845524,
2229.000,0.829908,
2228.000,0.814592,
2227.000,0.798956,
2226.000,0.782958,
2225.000,0.767132,
2224.000,0.752027,
2223.000,0.737702,
2222.000,0.723777,
2221.000,0.709826,
2220.000,0.695669,
2219.000,0.681353,
2218.000,0.666996,
2217.000,0.65271,
2216.000,0.638587,
2215.000,0.624696,
2214.000,0.611077,
2213.000,0.597769,
2212.000,0.584838,
2211.000,0.572352,
2210.000,0.560296,
2209.000,0.548544,
2208.000,0.536941,
2207.000,0.525415,
2206.000,0.513975,
2205.000,0.50261,
2204.000,0.491316,
2203.000,0.480228,
2202.000,0.469616,
2201.000,0.459637,
2200.000,0.45016,
2199.000,0.440919,
2198.000,0.431732,
2197.000,0.422456,
2196.000,0.41292,
2195.000,0.403114,
2194.000,0.393375,
2193.000,0.384083,
2192.000,0.375232,
2191.000,0.3666,
2190.000,0.358308,
2189.000,0.350748,
2188.000,0.343813,
2187.000,0.336659,
2186.000,0.328584,
2185.000,0.319899,
2184.000,0.311588,
2183.000,0.30423,
2182.000,0.297571,
2181.000,0.291019,
2180.000,0.28425,
2179.000,0.277359,
2178.000,0.270679,
2177.000,0.264506,
2176.000,0.258853,
2175.000,0.2535,
2174.000,0.248406,
2173.000,0.243873,
2172.000,0.240101,
2171.000,0.236721,
2170.000,0.233056,
2169.000,0.228773,
2168.000,0.22403,
2167.000,0.219043,
2166.000,0.213859,
2165.000,0.208593,
2164.000,0.203593,
2163.000,0.199153,
2162.000,0.195226,
2161.000,0.191528,
2160.000,0.187845,
2159.000,0.184133,
2158.000,0.180385,
2157.000,0.176491,
2156.000,0.172273,
2155.000,0.167702,
2154.000,0.16306,
2153.000,0.158813,
2152.000,0.155222,
2151.000,0.152168,
2150.000,0.149415,
2149.000,0.146912,
2148.000,0.144746,
2147.000,0.142859,
2146.000,0.140993,
2145.000,0.138933,
2144.000,0.136763,
2143.000,0.134786,
2142.000,0.133168,
2141.000,0.131679,
2140.000,0.129839,
2139.000,0.127454,
2138.000,0.124896,
2137.000,0.122646,
2136.000,0.120612,
2135.000,0.118279,
2134.000,0.115577,
2133.000,0.113175,
2132.000,0.111652,
2131.000,0.11074,
2130.000,0.109699,
2129.000,0.108228,
2128.000,0.106563,
2127.000,0.10484,
2126.000,0.102874,
2125.000,0.100615,
2124.000,0.098427,
2123.000,0.0967581,
2122.000,0.0957326,
2121.000,0.0951231,
2120.000,0.0945612,
2119.000,0.093767,
2118.000,0.0927163,
2117.000,0.0916324,
2116.000,0.0906876,
2115.000,0.0897478,
2114.000,0.0885622,
2113.000,0.0870925,
2112.000,0.0854731,
2111.000,0.0837594,
2110.000,0.0819418,
2109.000,0.0801773,
2108.000,0.0787747,
2107.000,0.0779441,
2106.000,0.0776872,
2105.000,0.0778354,
2104.000,0.078025,
2103.000,0.0777975,
2102.000,0.0770124,
2101.000,0.0761024,
2100.000,0.0756291,
2099.000,0.0755933,
2098.000,0.0754468,
2097.000,0.0747699,
2096.000,0.0737036,
2095.000,0.0726912,
2094.000,0.0720277,
2093.000,0.0717025,
2092.000,0.0714538,
2091.000,0.0709157,
2090.000,0.0699109,
2089.000,0.0686647,
2088.000,0.0675838,
2087.000,0.0668537,
2086.000,0.0663979,
2085.000,0.0661389,
2084.000,0.0660374,
2083.000,0.0659598,
2082.000,0.0657754,
2081.000,0.0655201,
2080.000,0.0652016,
2079.000,0.0645474,
2078.000,0.0633129,
2077.000,0.0618141,
2076.000,0.0607395,
2075.000,0.0603529,
2074.000,0.0602765,
2073.000,0.0601491,
2072.000,0.0601027,
2071.000,0.0603396,
2070.000,0.0605899,
2069.000,0.0603752,
2068.000,0.0596064,
2067.000,0.058647,
2066.000,0.057902,
2065.000,0.0575664,
2064.000,0.0576072,
2063.000,0.0577241,
2062.000,0.0574581,
2061.000,0.0566082,
2060.000,0.0554936,
2059.000,0.0546278,
2058.000,0.0542095,
2057.000,0.0541173,
2056.000,0.0542456,
2055.000,0.0545164,
2054.000,0.0546481,
2053.000,0.0542329,
2052.000,0.0531298,
2051.000,0.0516629,
2050.000,0.0503729,
2049.000,0.0496271,
2048.000,0.049459,
2047.000,0.0496375,
2046.000,0.0498006,
2045.000,0.0496703,
2044.000,0.0492805,
2043.000,0.0489029,
2042.000,0.0486874,
2041.000,0.048522,
2040.000,0.0482926,
2039.000,0.0480762,
2038.000,0.0479515,
2037.000,0.0477732,
2036.000,0.0473582,
2035.000,0.0468645,
2034.000,0.0467419,
2033.000,0.0471707,
2032.000,0.0477296,
2031.000,0.0478324,
2030.000,0.0474094,
2029.000,0.0469315,
2028.000,0.046754,
2027.000,0.0467076,
2026.000,0.0464699,
2025.000,0.0460753,
2024.000,0.0458103,
2023.000,0.0457449,
2022.000,0.0456435,
2021.000,0.0453255,
2020.000,0.0448969,
2019.000,0.0445834,
2018.000,0.044491,
2017.000,0.0445771,
2016.000,0.0447534,
2015.000,0.0449403,
2014.000,0.0450376,
2013.000,0.0449171,
2012.000,0.0445026,
2011.000,0.043882,
2010.000,0.0433334,
2009.000,0.0431577,
2008.000,0.0434043,
2007.000,0.0437926,
2006.000,0.0439814,
2005.000,0.0438877,
2004.000,0.0436677,
2003.000,0.043468,
2002.000,0.0433032,
2001.000,0.0431173,
2000.000,0.0428295,
1999.000,0.0424095,
1998.000,0.0420158,
1997.000,0.0419472,
1996.000,0.0423625,
1995.000,0.0430679,
1994.000,0.0436787,
1993.000,0.0440224,
1992.000,0.0442447,
1991.000,0.0444639,
1990.000,0.0445438,
1989.000,0.0443505,
1988.000,0.0440379,
1987.000,0.0438515,
1986.000,0.0437227,
1985.000,0.0433179,
1984.000,0.0425556,
1983.000,0.0418346,
1982.000,0.0416136,
1981.000,0.0419251,
1980.000,0.042389,
1979.000,0.0426384,
1978.000,0.0426566,
1977.000,0.042693,
1976.000,0.0429729,
1975.000,0.0435681,
1974.000,0.0443912,
1973.000,0.0451395,
1972.000,0.0453449,
1971.000,0.0447009,
1970.000,0.0433865,
1969.000,0.0419832,
1968.000,0.0410382,
1967.000,0.0407154,
1966.000,0.0408685,
1965.000,0.0413262,
1964.000,0.0419845,
1963.000,0.0427581,
1962.000,0.0435549,
1961.000,0.0442023,
1960.000,0.0444842,
1959.000,0.0444146,
1958.000,0.0443456,
1957.000,0.0445381,
1956.000,0.0447225,
1955.000,0.0444377,
1954.000,0.0437225,
1953.000,0.0430849,
1952.000,0.0428388,
1951.000,0.0428555,
1950.000,0.0430269,
1949.000,0.0435809,
1948.000,0.0446624,
1947.000,0.0458723,
1946.000,0.0465638,
1945.000,0.0465044,
1944.000,0.0460234,
1943.000,0.0455919,
1942.000,0.0454785,
1941.000,0.0457228,
1940.000,0.0461561,
1939.000,0.0464762,
1938.000,0.0465388,
1937.000,0.0465673,
1936.000,0.0469028,
1935.000,0.0475395,
1934.000,0.0480952,
1933.000,0.0482596,
1932.000,0.0481388,
1931.000,0.0481103,
1930.000,0.0483977,
1929.000,0.0488564,
1928.000,0.049117,
1927.000,0.0489413,
1926.000,0.0484759,
1925.000,0.0481779,
1924.000,0.0484632,
1923.000,0.04933,
1922.000,0.0503263,
1921.000,0.0509449,
1920.000,0.0510652,
1919.000,0.051014,
1918.000,0.0511828,
1917.000,0.0515853,
1916.000,0.0519129,
1915.000,0.0520216,
1914.000,0.0521119,
1913.000,0.0523606,
1912.000,0.0526515,
1911.000,0.0527911,
1910.000,0.0527914,
1909.000,0.0527955,
1908.000,0.0528065,
1907.000,0.0527848,
1906.000,0.0529642,
1905.000,0.0536828,
1904.000,0.0548892,
1903.000,0.0561059,
1902.000,0.0569151,
1901.000,0.0572271,
1900.000,0.0571052,
1899.000,0.0567072,
1898.000,0.0564147,
1897.000,0.0566271,
1896.000,0.0573371,
1895.000,0.0581908,
1894.000,0.0590276,
1893.000,0.0600083,
1892.000,0.061125,
1891.000,0.0620676,
1890.000,0.0627521,
1889.000,0.0635236,
1888.000,0.0645981,
1887.000,0.0656859,
1886.000,0.0664145,
1885.000,0.0668465,
1884.000,0.0673233,
1883.000,0.067954,
1882.000,0.0685604,
1881.000,0.0690571,
1880.000,0.069556,
1879.000,0.0701164,
1878.000,0.0706925,
1877.000,0.0712851,
1876.000,0.0718913,
1875.000,0.0724272,
1874.000,0.0729598,
1873.000,0.0737874,
1872.000,0.0749143,
1871.000,0.0757269,
1870.000,0.0756717,
1869.000,0.0750919,
1868.000,0.0749825,
1867.000,0.0759809,
1866.000,0.0779007,
1865.000,0.0801676,
1864.000,0.0823442,
1863.000,0.0842758,
1862.000,0.0860499,
1861.000,0.0878537,
1860.000,0.0896699,
1859.000,0.0911619,
1858.000,0.09211,
1857.000,0.0928997,
1856.000,0.0942406,
1855.000,0.0963712,
1854.000,0.0987743,
1853.000,0.100865,
1852.000,0.102681,
1851.000,0.104703,
1850.000,0.107265,
1849.000,0.110238,
1848.000,0.113172,
1847.000,0.115665,
1846.000,0.117725,
1845.000,0.119868,
1844.000,0.122545,
1843.000,0.125568,
1842.000,0.128439,
1841.000,0.131043,
1840.000,0.133701,
1839.000,0.136801,
1838.000,0.140428,
1837.000,0.144297,
1836.000,0.148153,
1835.000,0.152091,
1834.000,0.156263,
1833.000,0.160437,
1832.000,0.164144,
1831.000,0.167495,
1830.000,0.171441,
1829.000,0.176717,
1828.000,0.182945,
1827.000,0.189018,
1826.000,0.194338,
1825.000,0.199335,
1824.000,0.204523,
1823.000,0.209796,
1822.000,0.214982,
1821.000,0.220436,
1820.000,0.226613,
1819.000,0.23344,
1818.000,0.240428,
1817.000,0.247119,
1816.000,0.253375,
1815.000,0.259197,
1814.000,0.264581,
1813.000,0.269472,
1812.000,0.273708,
1811.000,0.277292,
1810.000,0.280438,
1809.000,0.283311,
1808.000,0.286046,
1807.000,0.289124,
1806.000,0.293488,
1805.000,0.299725,
1804.000,0.307317,
1803.000,0.31512,
1802.000,0.323039,
1801.000,0.332494,
1800.000,0.344679,
1799.000,0.359368,
1798.000,0.37558,
1797.000,0.392605,
1796.000,0.410064,
1795.000,0.427488,
1794.000,0.444782,
1793.000,0.462634,
1792.000,0.481284,
1791.000,0.500089,
1790.000,0.518952,
1789.000,0.538557,
1788.000,0.559008,
1787.000,0.579143,
1786.000,0.597568,
1785.000,0.613877,
1784.000,0.628988,
1783.000,0.643482,
1782.000,0.656686,
1781.000,0.667794,
1780.000,0.676204,
1779.000,0.681499,
1778.000,0.683243,
1777.000,0.681016,
1776.000,0.674261,
1775.000,0.661159,
1774.000,0.640694,
1773.000,0.616172,
1772.000,0.591917,
1771.000,0.569368,
1770.000,0.547374,
1769.000,0.523656,
1768.000,0.499144,
1767.000,0.478985,
1766.000,0.467144,
1765.000,0.462294,
1764.000,0.459519,
1763.000,0.454549,
1762.000,0.446042,
1761.000,0.434521,
1760.000,0.420773,
1759.000,0.404877,
1758.000,0.385937,
1757.000,0.364114,
1756.000,0.341606,
1755.000,0.320631,
1754.000,0.301014,
1753.000,0.2805,
1752.000,0.257966,
1751.000,0.235433,
1750.000,0.215786,
1749.000,0.199847,
1748.000,0.186556,
1747.000,0.174303,
1746.000,0.161795,
1745.000,0.148486,
1744.000,0.134824,
1743.000,0.121814,
1742.000,0.109919,
1741.000,0.0987257,
1740.000,0.0879057,
1739.000,0.0780341,
1738.000,0.0698405,
1737.000,0.063113,
1736.000,0.0570143,
1735.000,0.0511954,
1734.000,0.0456427,
1733.000,0.0400924,
1732.000,0.0346559,
1731.000,0.0298937,
1730.000,0.0260185,
1729.000,0.0227913,
1728.000,0.0199195,
1727.000,0.0172558,
1726.000,0.0146652,
1725.000,0.0119696,
1724.000,0.00918259,
1723.000,0.00654493,
1722.000,0.00441072,
1721.000,0.00300093,
1720.000,0.00244571,
1719.000,0.00284754,
1718.000,0.00349943,
1717.000,0.00335164,
1716.000,0.00226187,
1715.000,0.000990855,
1714.000,0.000427837,
1713.000,0.000579769,
1712.000,0.000987309,
1711.000,0.00144783,
1710.000,0.00187456,
1709.000,0.00222527,
1708.000,0.00245826,
1707.000,0.00219495,
1706.000,0.00141685,
1705.000,0.00184685,
1704.000,0.00353394,
1703.000,0.00499545,
1702.000,0.00674607,
1701.000,0.00962376,
1700.000,0.0138079,
1699.000,0.0184116,
1698.000,0.0224892,
1697.000,0.0262233,
1696.000,0.030012,
1695.000,0.0337566,
1694.000,0.0371263,
1693.000,0.0404542,
1692.000,0.0443856,
1691.000,0.0491529,
1690.000,0.0545886,
1689.000,0.0606085,
1688.000,0.0673562,
1687.000,0.0746489,
1686.000,0.0821575,
1685.000,0.0907341,
1684.000,0.101436,
1683.000,0.113361,
1682.000,0.124824,
1681.000,0.134974,
1680.000,0.143764,
1679.000,0.151622,
1678.000,0.158889,
1677.000,0.165641,
1676.000,0.172373,
1675.000,0.179889,
1674.000,0.18852,
1673.000,0.198287,
1672.000,0.209053,
1671.000,0.221156,
1670.000,0.235689,
1669.000,0.253221,
1668.000,0.27326,
1667.000,0.294728,
1666.000,0.316601,
1665.000,0.338551,
1664.000,0.361895,
1663.000,0.388557,
1662.000,0.417545,
1661.000,0.445455,
1660.000,0.469684,
1659.000,0.490244,
1658.000,0.50922,
1657.000,0.527933,
1656.000,0.541962,
1655.000,0.543413,
1654.000,0.538133,
1653.000,0.534764,
1652.000,0.530479,
1651.000,0.525645,
1650.000,0.522293,
1649.000,0.518606,
1648.000,0.514294,
1647.000,0.510795,
1646.000,0.507266,
1645.000,0.502046,
1644.000,0.495709,
1643.000,0.488616,
1642.000,0.47965,
1641.000,0.468749,
1640.000,0.457192,
1639.000,0.445481,
1638.000,0.432537,
1637.000,0.419457,
1636.000,0.409643,
1635.000,0.403229,
1634.000,0.398453,
1633.000,0.394728,
1632.000,0.391542,
1631.000,0.387949,
1630.000,0.383539,
1629.000,0.378817,
1628.000,0.374288,
1627.000,0.369429,
1626.000,0.363066,
1625.000,0.354875,
1624.000,0.345977,
1623.000,0.337256,
1622.000,0.328384,
1621.000,0.319221,
1620.000,0.309628,
1619.000,0.298439,
1618.000,0.285197,
1617.000,0.271345,
1616.000,0.258536,
1615.000,0.247652,
1614.000,0.238472,
1613.000,0.229942,
1612.000,0.221948,
1611.000,0.215486,
1610.000,0.21097,
1609.000,0.207427,
1608.000,0.20367,
1607.000,0.199451,
1606.000,0.195102,
1605.000,0.190843,
1604.000,0.186427,
1603.000,0.181367,
1602.000,0.175552,
1601.000,0.169552,
1600.000,0.164193,
1599.000,0.159647,
1598.000,0.155215,
1597.000,0.150215,
1596.000,0.144795,
1595.000,0.139568,
1594.000,0.134723,
1593.000,0.130029,
1592.000,0.125537,
1591.000,0.121605,
1590.000,0.118191,
1589.000,0.114738,
1588.000,0.110948,
1587.000,0.107248,
1586.000,0.104131,
1585.000,0.101535,
1584.000,0.0991143,
1583.000,0.0966671,
1582.000,0.0942403,
1581.000,0.0919771,
1580.000,0.0898844,
1579.000,0.0876381,
1578.000,0.0849633,
1577.000,0.082421,
1576.000,0.0809429,
1575.000,0.0805241,
1574.000,0.0801901,
1573.000,0.0789872,
1572.000,0.0766662,
1571.000,0.0739416,
1570.000,0.0717909,
1569.000,0.0703466,
1568.000,0.0691083,
1567.000,0.0677417,
1566.000,0.0661703,
1565.000,0.0645123,
1564.000,0.063139,
1563.000,0.0622003,
1562.000,0.0610394,
1561.000,0.0586192,
1560.000,0.0560888,
1559.000,0.0556606,
1558.000,0.0565886,
1557.000,0.0567647,
1556.000,0.0553772,
1555.000,0.0527788,
1554.000,0.0500435,
1553.000,0.0482369,
1552.000,0.047548,
1551.000,0.0473666,
1550.000,0.0470041,
1549.000,0.0461977,
1548.000,0.0451927,
1547.000,0.0444023,
1546.000,0.0440117,
1545.000,0.0439154,
1544.000,0.0439301,
1543.000,0.0438555,
1542.000,0.0433121,
1541.000,0.0420928,
1540.000,0.0404482,
1539.000,0.0391068,
1538.000,0.0387733,
1537.000,0.0391009,
1536.000,0.0391699,
1535.000,0.0386454,
1534.000,0.0380041,
1533.000,0.0377886,
1532.000,0.0378604,
1531.000,0.037723,
1530.000,0.037177,
1529.000,0.0363465,
1528.000,0.0353899,
1527.000,0.0344167,
1526.000,0.033447,
1525.000,0.0323792,
1524.000,0.0310887,
1523.000,0.0296239,
1522.000,0.0282779,
1521.000,0.027436,
1520.000,0.0273369,
1519.000,0.0279146,
1518.000,0.028928,
1517.000,0.0300555,
1516.000,0.0308763,
1515.000,0.0310618,
1514.000,0.0306016,
1513.000,0.0297921,
1512.000,0.0290988,
1511.000,0.0288676,
1510.000,0.0290201,
1509.000,0.0290771,
1508.000,0.0288061,
1507.000,0.0285873,
1506.000,0.0285115,
1505.000,0.0282232,
1504.000,0.0277218,
1503.000,0.0273087,
1502.000,0.0271329,
1501.000,0.0270725,
1500.000,0.026889,
1499.000,0.0265279,
1498.000,0.0263506,
1497.000,0.0268376,
1496.000,0.0278908,
1495.000,0.0289313,
1494.000,0.0296112,
1493.000,0.0297312,
1492.000,0.0289106,
1491.000,0.0270555,
1490.000,0.0248656,
1489.000,0.0232685,
1488.000,0.0224838,
1487.000,0.0219881,
1486.000,0.0213566,
1485.000,0.0210149,
1484.000,0.0215978,
1483.000,0.0227888,
1482.000,0.0235907,
1481.000,0.0234917,
1480.000,0.0228129,
1479.000,0.0219805,
1478.000,0.0210852,
1477.000,0.020326,
1476.000,0.0202246,
1475.000,0.0209809,
1474.000,0.0220605,
1473.000,0.0227936,
1472.000,0.0229019,
1471.000,0.0223234,
1470.000,0.0211653,
1469.000,0.0198373,
1468.000,0.0189304,
1467.000,0.0188075,
1466.000,0.0191829,
1465.000,0.019495,
1464.000,0.0197057,
1463.000,0.0201614,
1462.000,0.0208233,
1461.000,0.0212663,
1460.000,0.0212455,
1459.000,0.0208374,
1458.000,0.0201986,
1457.000,0.0195191,
1456.000,0.019167,
1455.000,0.0192954,
1454.000,0.0194356,
1453.000,0.0190361,
1452.000,0.0181464,
1451.000,0.017254,
1450.000,0.0166055,
1449.000,0.0161208,
1448.000,0.0159403,
1447.000,0.0164598,
1446.000,0.017647,
1445.000,0.0188272,
1444.000,0.0194161,
1443.000,0.0194969,
1442.000,0.0195205,
1441.000,0.0197475,
1440.000,0.0200759,
1439.000,0.0202241,
1438.000,0.0199705,
1437.000,0.0194248,
1436.000,0.0190916,
1435.000,0.0192683,
1434.000,0.0196265,
1433.000,0.0197389,
1432.000,0.0195687,
1431.000,0.0193454,
1430.000,0.0191367,
1429.000,0.0186856,
1428.000,0.0180103,
1427.000,0.0176353,
1426.000,0.0177603,
1425.000,0.0178527,
1424.000,0.0174437,
1423.000,0.0169023,
1422.000,0.0169819,
1421.000,0.0178786,
1420.000,0.0189922,
1419.000,0.019497,
1418.000,0.0191555,
1417.000,0.0183843,
1416.000,0.017738,
1415.000,0.0175399,
1414.000,0.0177715,
1413.000,0.0181688,
1412.000,0.0184091,
1411.000,0.0184291,
1410.000,0.0184038,
1409.000,0.0183155,
1408.000,0.0179059,
1407.000,0.0171209,
1406.000,0.0164007,
1405.000,0.0163667,
1404.000,0.0171368,
1403.000,0.018082,
1402.000,0.0184157,
1401.000,0.0179859,
1400.000,0.0175044,
1399.000,0.0179018,
1398.000,0.0191867,
1397.000,0.0204017,
1396.000,0.0208313,
1395.000,0.0205573,
1394.000,0.0199747,
1393.000,0.0193316,
1392.000,0.0188287,
1391.000,0.0187288,
1390.000,0.0190503,
1389.000,0.0193913,
1388.000,0.0193205,
1387.000,0.0187934,
1386.000,0.017977,
1385.000,0.0169889,
1384.000,0.0160366,
1383.000,0.0155962,
1382.000,0.0160245,
1381.000,0.0170363,
1380.000,0.0179916,
1379.000,0.0186036,
1378.000,0.019191,
1377.000,0.0201208,
1376.000,0.021242,
1375.000,0.0220146,
1374.000,0.022015,
1373.000,0.0213212,
1372.000,0.0203949,
1371.000,0.0196635,
1370.000,0.0192211,
1369.000,0.0188183,
1368.000,0.0181817,
1367.000,0.0174425,
1366.000,0.0171043,
1365.000,0.0175273,
1364.000,0.0186502,
1363.000,0.0200955,
1362.000,0.0212913,
1361.000,0.0216461,
1360.000,0.0209433,
1359.000,0.01967,
1358.000,0.0187874,
1357.000,0.0188869,
1356.000,0.0196432,
1355.000,0.0202028,
1354.000,0.0199523,
1353.000,0.0190478,
1352.000,0.0182345,
1351.000,0.0181808,
1350.000,0.0189593,
1349.000,0.0199689,
1348.000,0.0204553,
1347.000,0.0202413,
1346.000,0.0197689,
1345.000,0.0193909,
1344.000,0.0188922,
1343.000,0.0178937,
1342.000,0.0165404,
1341.000,0.0155093,
1340.000,0.015246,
1339.000,0.0153937,
1338.000,0.0153147,
1337.000,0.0150604,
1336.000,0.0153074,
1335.000,0.0163653,
1334.000,0.0177799,
1333.000,0.0188903,
1332.000,0.0193468,
1331.000,0.0191418,
1330.000,0.0184415,
1329.000,0.0175924,
1328.000,0.0170966,
1327.000,0.0172248,
1326.000,0.0177262,
1325.000,0.0181615,
1324.000,0.0184482,
1323.000,0.0189047,
1322.000,0.0197778,
1321.000,0.0208827,
1320.000,0.0217144,
1319.000,0.0218533,
1318.000,0.0212215,
1317.000,0.0199789,
1316.000,0.0186023,
1315.000,0.0176673,
1314.000,0.0170961,
1313.000,0.0163269,
1312.000,0.0150745,
1311.000,0.0136833,
1310.000,0.0128741,
1309.000,0.0130749,
1308.000,0.0140296,
1307.000,0.0150522,
1306.000,0.0157324,
1305.000,0.016146,
1304.000,0.016498,
1303.000,0.0169209,
1302.000,0.017474,
1301.000,0.0181539,
1300.000,0.0189103,
1299.000,0.0196523,
1298.000,0.0202237,
1297.000,0.0204633,
1296.000,0.0203931,
1295.000,0.0202582,
1294.000,0.0202411,
1293.000,0.0201851,
1292.000,0.0198242,
1291.000,0.0193152,
1290.000,0.0192176,
1289.000,0.0198507,
1288.000,0.0209135,
1287.000,0.021801,
1286.000,0.0222445,
1285.000,0.0224921,
1284.000,0.0228346,
1283.000,0.0232726,
1282.000,0.0236987,
1281.000,0.0241009,
1280.000,0.0244913,
1279.000,0.0248262,
1278.000,0.0251069,
1277.000,0.0253575,
1276.000,0.0253658,
1275.000,0.0246534,
1274.000,0.0229924,
1273.000,0.0209605,
1272.000,0.0197093,
1271.000,0.0200263,
1270.000,0.0216324,
1269.000,0.0234056,
1268.000,0.0242853,
1267.000,0.0240665,
1266.000,0.0234815,
1265.000,0.0235008,
1264.000,0.0244467,
1263.000,0.0259208,
1262.000,0.0274011,
1261.000,0.0284535,
1260.000,0.0288534,
1259.000,0.0288574,
1258.000,0.0290166,
1257.000,0.0297177,
1256.000,0.0308754,
1255.000,0.0319154,
1254.000,0.0322997,
1253.000,0.0321302,
1252.000,0.0319451,
1251.000,0.0320867,
1250.000,0.0325545,
1249.000,0.0331658,
1248.000,0.0336941,
1247.000,0.0341206,
1246.000,0.0347752,
1245.000,0.0360684,
1244.000,0.0380039,
1243.000,0.0400251,
1242.000,0.0414677,
1241.000,0.0421673,
1240.000,0.0425158,
1239.000,0.0429686,
1238.000,0.043694,
1237.000,0.0446064,
1236.000,0.0454542,
1235.000,0.0458967,
1234.000,0.0458421,
1233.000,0.0457818,
1232.000,0.0463859,
1231.000,0.0474781,
1230.000,0.0477939,
1229.000,0.0462093,
1228.000,0.042906,
1227.000,0.0389705,
1226.000,0.0350607,
1225.000,0.030928,
1224.000,0.0262859,
1223.000,0.0216971,
1222.000,0.0183173,
1221.000,0.016948,
1220.000,0.0174792,
1219.000,0.0190444,
1218.000,0.0205203,
1217.000,0.0210813,
1216.000,0.0207682,
1215.000,0.0206007,
1214.000,0.0218539,
1213.000,0.0249443,
1212.000,0.0289309,
1211.000,0.0322032,
1210.000,0.0337876,
1209.000,0.0340113,
1208.000,0.0339518,
1207.000,0.034391,
1206.000,0.035338,
1205.000,0.03634,
1204.000,0.0370376,
1203.000,0.0375488,
1202.000,0.0385202,
1201.000,0.0406761,
1200.000,0.0440601,
1199.000,0.0477996,
1198.000,0.0508387,
1197.000,0.0528155,
1196.000,0.0541455,
1195.000,0.0554414,
1194.000,0.0569063,
1193.000,0.0582727,
1192.000,0.059335,
1191.000,0.0603488,
1190.000,0.0618521,
1189.000,0.064167,
1188.000,0.0670378,
1187.000,0.0697593,
1186.000,0.0718354,
1185.000,0.0735469,
1184.000,0.0755701,
1183.000,0.0781589,
1182.000,0.0811242,
1181.000,0.084277,
1180.000,0.0874223,
1179.000,0.0902095,
1178.000,0.0924267,
1177.000,0.0944009,
1176.000,0.0968039,
1175.000,0.100038,
1174.000,0.103959,
1173.000,0.108204,
1172.000,0.112511,
1171.000,0.116665,
1170.000,0.120564,
1169.000,0.124471,
1168.000,0.1289,
1167.000,0.133949,
1166.000,0.138925,
1165.000,0.142923,
1164.000,0.145812,
1163.000,0.148466,
1162.000,0.151951,
1161.000,0.156519,
1160.000,0.161454,
1159.000,0.165988,
1158.000,0.170241,
1157.000,0.174946,
1156.000,0.180221,
1155.000,0.185115,
1154.000,0.188721,
1153.000,0.191301,
1152.000,0.193794,
1151.000,0.196593,
1150.000,0.199372,
1149.000,0.201828,
1148.000,0.203852,
1147.000,0.205182,
1146.000,0.20568,
1145.000,0.205907,
1144.000,0.206685,
1143.000,0.207823,
1142.000,0.207879,
1141.000,0.205579,
1140.000,0.200932,
1139.000,0.194808,
1138.000,0.187888,
1137.000,0.180241,
1136.000,0.171609,
1135.000,0.161706,
1134.000,0.150555,
1133.000,0.138686,
1132.000,0.126777,
1131.000,0.115098,
1130.000,0.103547,
1129.000,0.0922609,
1128.000,0.0816678,
1127.000,0.0717556,
1126.000,0.0619577,
1125.000,0.0521764,
1124.000,0.0432646,
1123.000,0.0360049,
1122.000,0.0302292,
1121.000,0.0255339,
1120.000,0.0223126,
1119.000,0.02118,
1118.000,0.0221609,
1117.000,0.0251167,
1116.000,0.0300654,
1115.000,0.0369747,
1114.000,0.0453945,
1113.000,0.054616,
1112.000,0.0641807,
1111.000,0.0737728,
1110.000,0.082851,
1109.000,0.090828,
1108.000,0.0975862,
1107.000,0.103359,
1106.000,0.108244,
1105.000,0.11201,
1104.000,0.114286,
1103.000,0.114879,
1102.000,0.113937,
1101.000,0.112145,
1100.000,0.110438,
1099.000,0.109076,
1098.000,0.107315,
1097.000,0.104231,
1096.000,0.0996947,
1095.000,0.0942152,
1094.000,0.0882395,
1093.000,0.0821188,
1092.000,0.0764201,
1091.000,0.0717553,
1090.000,0.0683753,
1089.000,0.0663275,
1088.000,0.0656507,
1087.000,0.0656287,
1086.000,0.0644871,
1085.000,0.0608599,
1084.000,0.0554185,
1083.000,0.0506931,
1082.000,0.0487383,
1081.000,0.0488191,
1080.000,0.048372,
1079.000,0.0457625,
1078.000,0.0415733,
1077.000,0.0378692,
1076.000,0.0364028,
1075.000,0.0370949,
1074.000,0.0380806,
1073.000,0.0374713,
1072.000,0.0351256,
1071.000,0.0326156,
1070.000,0.0313209,
1069.000,0.0310222,
1068.000,0.0305488,
1067.000,0.0292614,
1066.000,0.0276384,
1065.000,0.0264809,
1064.000,0.0259342,
1063.000,0.0256584,
1062.000,0.0251967,
1061.000,0.0240352,
1060.000,0.022311,
1059.000,0.0204396,
1058.000,0.0186333,
1057.000,0.017258,
1056.000,0.0163418,
1055.000,0.0155707,
1054.000,0.0146498,
1053.000,0.0136202,
1052.000,0.0130659,
1051.000,0.0133932,
1050.000,0.014269,
1049.000,0.0153575,
1048.000,0.0169189,
1047.000,0.0188917,
1046.000,0.0201923,
1045.000,0.0198733,
1044.000,0.0184537,
1043.000,0.0174518,
1042.000,0.0175371,
1041.000,0.0180367,
1040.000,0.0185336,
1039.000,0.0192499,
1038.000,0.019967,
1037.000,0.0198543,
1036.000,0.018378,
1035.000,0.0161653,
1034.000,0.0146381,
1033.000,0.0147656,
1032.000,0.0165221,
1031.000,0.019094,
1030.000,0.0209914,
1029.000,0.0208044,
1028.000,0.0186356,
1027.000,0.0164037,
1026.000,0.0155634,
1025.000,0.0149888,
1024.000,0.0135186,
1023.000,0.011915,
1022.000,0.0109726,
1021.000,0.0107464,
1020.000,0.0111945,
1019.000,0.0114882,
1018.000,0.0111938,
1017.000,0.0109118,
1016.000,0.010856,
1015.000,0.010818,
1014.000,0.0112582,
1013.000,0.0128583,
1012.000,0.0153772,
1011.000,0.0174682,
1010.000,0.017718,
1009.000,0.0157298,
1008.000,0.0122134,
1007.000,0.00841578,
1006.000,0.00586654,
1005.000,0.0059647,
1004.000,0.0080648,
1003.000,0.0104498,
1002.000,0.0120877,
1001.000,0.0127128,
1000.000,0.0123565,
999.000,0.0109484,
998.000,0.00853627,
997.000,0.00582632,
996.000,0.00409681,
995.000,0.00399864,
994.000,0.00474864,
993.000,0.00492405,
992.000,0.00412504,
991.000,0.00324186,
990.000,0.00300813,
989.000,0.00320548,
988.000,0.00334451,
987.000,0.00371765,
986.000,0.00485277,
985.000,0.00586353,
984.000,0.00566931,
983.000,0.00414119,
982.000,0.00308674,
981.000,0.00501112,
980.000,0.00768119,
979.000,0.00919474,
978.000,0.00886573,
977.000,0.00746308,
976.000,0.00653187,
975.000,0.00605957,
974.000,0.00500405,
973.000,0.00335401,
972.000,0.00235126,
971.000,0.0027199,
970.000,0.00314225,
969.000,0.00335758,
968.000,0.00387467,
967.000,0.00461367,
966.000,0.00480847,
965.000,0.00418592,
964.000,0.00370668,
963.000,0.00306883,
962.000,0.000993602,
961.000,0.00203664,
960.000,0.00447618,
959.000,0.00564238,
958.000,0.00545931,
957.000,0.00424497,
956.000,0.00244114,
955.000,0.00151426,
954.000,0.00241889,
953.000,0.00237421,
952.000,0.00121594,
951.000,0.00118023,
950.000,0.00197172,
949.000,0.00238581,
948.000,0.00267648,
947.000,0.0030497,
946.000,0.00325754,
945.000,0.00306489,
944.000,0.0027203,
943.000,0.00262305,
942.000,0.00282829,
941.000,0.00294704,
940.000,0.00291044,
939.000,0.00373205,
938.000,0.00486172,
937.000,0.00513263,
936.000,0.00453843,
935.000,0.00332238,
934.000,0.00257619,
933.000,0.0042064,
932.000,0.00672982,
931.000,0.0086031,
930.000,0.00888232,
929.000,0.00742117,
928.000,0.00507537,
927.000,0.00269005,
926.000,0.00151158,
925.000,0.00240835,
924.000,0.00368957,
923.000,0.00390006,
922.000,0.00236962,
921.000,0.00183709,
920.000,0.00326293,
919.000,0.00387505,
918.000,0.00333435,
917.000,0.00232471,
916.000,0.0033825,
915.000,0.00499525,
914.000,0.00491701,
913.000,0.00281471,
912.000,0.000987105,
911.000,0.0042719,
910.000,0.00671796,
909.000,0.00751776,
908.000,0.00728148,
907.000,0.00712031,
906.000,0.00855053,
905.000,0.0103359,
904.000,0.0104764,
903.000,0.00823551,
902.000,0.00422713,
901.000,0.00212095,
900.000,0.00363418,
899.000,0.00374294,
898.000,0.00229866,
897.000,0.000687848,
896.000,0.00273748,
895.000,0.00555082,
894.000,0.00719343,
893.000,0.00755605,
892.000,0.00646051,
891.000,0.00451434,
890.000,0.00344093,
889.000,0.0037646,
888.000,0.00411156,
887.000,0.00373081,
886.000,0.00205831,
885.000,0.00091712,
884.000,0.00297987,
883.000,0.00456401,
882.000,0.00557014,
881.000,0.00577597,
880.000,0.00466478,
879.000,0.00345547,
878.000,0.00438238,
877.000,0.0070746,
876.000,0.0103796,
875.000,0.0125219,
874.000,0.0118819,
873.000,0.00964322,
872.000,0.00899149,
871.000,0.0107736,
870.000,0.0125081,
869.000,0.0121498,
868.000,0.00963455,
867.000,0.00609038,
866.000,0.00334636,
865.000,0.00309365,
864.000,0.00361469,
863.000,0.00337919,
862.000,0.00293925,
861.000,0.00173332,
860.000,0.00132217,
859.000,0.00567544,
858.000,0.00991646,
857.000,0.0117613,
856.000,0.0107659,
855.000,0.00739687,
854.000,0.00418615,
853.000,0.00438886,
852.000,0.00569702,
851.000,0.00575696,
850.000,0.00562271,
849.000,0.00664424,
848.000,0.0079996,
847.000,0.00789939,
846.000,0.00578015,
845.000,0.00263306,
844.000,0.00235894,
843.000,0.00455526,
842.000,0.00540756,
841.000,0.00501793,
840.000,0.00452092,
839.000,0.00532742,
838.000,0.00719175,
837.000,0.00844422,
836.000,0.00829153,
835.000,0.00617512,
834.000,0.00409667,
833.000,0.00631371,
832.000,0.00979124,
831.000,0.0115231,
830.000,0.0116192,
829.000,0.0105849,
828.000,0.00890608,
827.000,0.00844559,
826.000,0.0095484,
825.000,0.00956334,
824.000,0.00704574,
823.000,0.00406286,
822.000,0.0049963,
821.000,0.00713647,
820.000,0.00735367,
819.000,0.00617239,
818.000,0.00472187,
817.000,0.00411277,
816.000,0.00476269,
815.000,0.00550682,
814.000,0.00504056,
813.000,0.00390667,
812.000,0.00379471,
811.000,0.0049484,
810.000,0.00588721,
809.000,0.00554715,
808.000,0.00392734,
807.000,0.00212731,
806.000,0.0012286,
805.000,0.00151055,
804.000,0.00322736,
803.000,0.00520818,
802.000,0.00537808,
801.000,0.00327731,
800.000,0.00206011,
799.000,0.00390638,
798.000,0.00488866,
797.000,0.00430483,
796.000,0.00263498,
795.000,0.00101999,
794.000,0.00269333,
793.000,0.00418547,
792.000,0.004034,
791.000,0.00349747,
790.000,0.00364402,
789.000,0.00347999,
788.000,0.00307926,
787.000,0.00548806,
786.000,0.0078826,
785.000,0.00706571,
784.000,0.00470252,
783.000,0.0043442,
782.000,0.0064796,
781.000,0.00894626,
780.000,0.00973264,
779.000,0.00907632,
778.000,0.00821262,
777.000,0.0063628,
776.000,0.00263367,
775.000,0.000766485,
774.000,0.00351871,
773.000,0.0063787,
772.000,0.00932277,
771.000,0.0111515,
770.000,0.0101449,
769.000,0.00776661,
768.000,0.00629827,
767.000,0.00564435,
766.000,0.00387539,
765.000,0.00172355,
764.000,0.00126971,
763.000,0.00279578,
762.000,0.00545898,
761.000,0.00819157,
760.000,0.0105083,
759.000,0.012417,
758.000,0.0135977,
757.000,0.012885,
756.000,0.00967881,
755.000,0.00442312,
754.000,0.00153067,
753.000,0.00329408,
752.000,0.00471458,
751.000,0.00632973,
750.000,0.00798076,
749.000,0.00814137,
748.000,0.00723137,
747.000,0.00621216,
746.000,0.00496747,
745.000,0.00352828,
744.000,0.00279947,
743.000,0.00219275,
742.000,0.0017019,
741.000,0.00146424,
740.000,0.00255934,
739.000,0.00410769,
738.000,0.00390533,
737.000,0.00271993,
736.000,0.00264446,
735.000,0.00443789,
734.000,0.00593924,
733.000,0.00516174,
732.000,0.00286136,
731.000,0.00139056,
730.000,0.00228744,
729.000,0.00352701,
728.000,0.00325347,
727.000,0.00302045,
726.000,0.00411368,
725.000,0.00554838,
724.000,0.00722589,
723.000,0.00863015,
722.000,0.00871428,
721.000,0.00835563,
720.000,0.00814371,
719.000,0.00739339,
718.000,0.00458769,
717.000,0.00161356,
716.000,0.00287263,
715.000,0.00543895,
714.000,0.00730859,
713.000,0.00810173,
712.000,0.00736638,
711.000,0.00599986,
710.000,0.00498654,
709.000,0.00343792,
708.000,0.00100469,
707.000,0.00111301,
706.000,0.00190479,
705.000,0.00209463,
704.000,0.00277344,
703.000,0.00279368,
702.000,0.00278524,
701.000,0.00335718,
700.000,0.00388074,
699.000,0.0044209,
698.000,0.00520233,
697.000,0.0061538,
696.000,0.00743205,
695.000,0.0088807,
694.000,0.00978873,
693.000,0.00912132,
692.000,0.00701265,
691.000,0.00411669,
690.000,0.00212216,
689.000,0.00312576,
688.000,0.00505357,
687.000,0.00637519,
686.000,0.00738335,
685.000,0.00861357,
684.000,0.0101571,
683.000,0.0107024,
682.000,0.00942574,
681.000,0.00700717,
680.000,0.0049623,
679.000,0.00361366,
678.000,0.00311881,
677.000,0.00220109,
676.000,0.00117081,
675.000,0.0020095,
674.000,0.00376563,
673.000,0.0064735,
672.000,0.00833971,
671.000,0.00906139,
670.000,0.0103154,
669.000,0.0115657,
668.000,0.010549,
667.000,0.00691145,
666.000,0.00711842,
665.000,0.0113695,
664.000,0.013073,
663.000,0.0110385,
662.000,0.00786839,
661.000,0.0066557,
660.000,0.00630491,
659.000,0.0042883,
658.000,0.00357169,
657.000,0.00493123,
656.000,0.00524502,
655.000,0.00290554,
654.000,0.00149678,
653.000,0.00148529,
652.000,0.000484909,
651.000,0.00337372,
650.000,0.00724534,
649.000,0.00910824,
648.000,0.00927197,
647.000,0.00717302,
646.000,0.00590962,
645.000,0.00579018,
644.000,0.00711974,
643.000,0.00606033,
642.000,0.00186804,
641.000,0.00583406,
640.000,0.0143817,
639.000,0.0192615,
638.000,0.0185335,
637.000,0.0128792,
636.000,0.00554542,
635.000,0.00230975,
634.000,0.00620194,
633.000,0.00980373,
632.000,0.0116161,
631.000,0.0122888,
630.000,0.0118831,
629.000,0.0121411,
628.000,0.0131203,
627.000,0.0144637,
626.000,0.0147086,
625.000,0.0135376,
624.000,0.0108039,
623.000,0.00808325,
622.000,0.00441114,
621.000,0.00145553,
620.000,0.00412733,
619.000,0.00767177,
618.000,0.00954294,
617.000,0.00995656,
616.000,0.00880127,
615.000,0.00733993,
614.000,0.00404783,
613.000,0.00188526,
612.000,0.00450075,
611.000,0.00723216,
610.000,0.00826263,
609.000,0.00830447,
608.000,0.00733084,
607.000,0.005483,
606.000,0.00356299,
605.000,0.00466888,
604.000,0.00733022,
603.000,0.00871033,
602.000,0.00799214,
601.000,0.00634587,
600.000,0.00604183,
599.000,0.00627786,
598.000,0.00549633,
597.000,0.00340843,
596.000,0.00338158,
595.000,0.00706554,
594.000,0.00837608,
593.000,0.00477706,
592.000,0.00440774,
591.000,0.00850724,
590.000,0.00911447,
589.000,0.00578387,
588.000,0.00319337,
587.000,0.00156483,
586.000,0.000587124,
585.000,0.00379547,
584.000,0.00818664,
583.000,0.0111368,
582.000,0.0122408,
581.000,0.0113507,
580.000,0.0111486,
579.000,0.0127691,
578.000,0.0146463,
577.000,0.0136309,
576.000,0.00933067,
575.000,0.00487897,
574.000,0.00343199,
573.000,0.0038402,
572.000,0.00355436,
571.000,0.00294115,
570.000,0.00445978,
569.000,0.00806121,
568.000,0.0112955,
567.000,0.0125845,
566.000,0.012277,
565.000,0.00968494,
564.000,0.004458,
563.000,0.00416923,
562.000,0.00945498,
561.000,0.0110827,
560.000,0.00996067,
559.000,0.0109652,
558.000,0.0120887,
557.000,0.0107965,
556.000,0.010058,
555.000,0.0115837,
554.000,0.0113256,
553.000,0.00834902,
552.000,0.0053606,
551.000,0.00242073,
550.000,0.00347403,
549.000,0.00831938,
548.000,0.0103497,
547.000,0.0118243,
546.000,0.0139736,
545.000,0.0125359,
544.000,0.00942956,
543.000,0.00994943,
542.000,0.0112406,
541.000,0.0104868,
540.000,0.0121575,
539.000,0.0162984,
538.000,0.0170953,
537.000,0.0142742,
536.000,0.0144563,
535.000,0.0177095,
534.000,0.0168985,
533.000,0.0129584,
532.000,0.0133492,
531.000,0.0176663,
530.000,0.0211144,
529.000,0.0223673,
528.000,0.0233749,
527.000,0.0254666,
526.000,0.0277852,
525.000,0.0268633,
524.000,0.0219661,
523.000,0.0133064,
522.000,0.00382456,
521.000,0.00541767,
520.000,0.0132424,
519.000,0.016375,
518.000,0.0172667,
517.000,0.015815,
516.000,0.011608,
515.000,0.0078524,
514.000,0.00969921,
513.000,0.00791382,
512.000,0.00534057,
511.000,0.0145479,
510.000,0.0196769,
509.000,0.0151677,
508.000,0.00900127,
507.000,0.00495077,
506.000,0.00477374,
505.000,0.0111787,
504.000,0.0224978,
503.000,0.0286729,
502.000,0.0326185,
501.000,0.0344831,
500.000,0.0322987,
499.000,0.0204614,
498.000,0.00744848,
497.000,0.0169697,
496.000,0.0327824,
495.000,0.0410688,
494.000,0.0409505,
493.000,0.0308462,
492.000,0.0182099,
491.000,0.00916814,
490.000,0.00918692,
489.000,0.0155785,
488.000,0.0221397,
487.000,0.0221026,
486.000,0.0167681,
485.000,0.0167113,
484.000,0.0187409,
483.000,0.0168308,
482.000,0.012298,
481.000,0.00964692,
480.000,0.0156081,
479.000,0.0241878,
478.000,0.0318043,
477.000,0.0401462,
476.000,0.0420104,
475.000,0.0346373,
474.000,0.0197491,
473.000,0.00437433,
472.000,0.00844857,
471.000,0.0103931,
470.000,0.00575672,
469.000,0.0244158,
468.000,0.0440176,
467.000,0.0453291,
466.000,0.0294408,
465.000,0.0272394,
464.000,0.0330201,
463.000,0.0158111,
462.000,0.0220937,
461.000,0.0502847,
460.000,0.0576375,
459.000,0.0471113,
458.000,0.0347936,
457.000,0.0353257,
456.000,0.0442556,
455.000,0.0480744,
454.000,0.0432425,
453.000,0.0364419,
452.000,0.0374657,
451.000,0.0485666,
450.000,0.0619672,
449.000,0.0690312,
448.000,0.0680144,
447.000,0.0597146,
446.000,0.0473738,
445.000,0.0402201,
444.000,0.0418949,
443.000,0.0457006,
442.000,0.0395089,
441.000,0.0295829,
440.000,0.031889,
439.000,0.0394317,
438.000,0.0331052,
437.000,0.0169298,
436.000,0.0198645,
435.000,0.0341926,
434.000,0.0307536,
433.000,0.0153279,
432.000,0.0203456,
431.000,0.0446711,
430.000,0.0597207,
429.000,0.0567872,
428.000,0.035692,
427.000,0.0115991,
426.000,0.00515054,
425.000,0.0197736,
424.000,0.0433204,
423.000,0.055286,
422.000,0.0518148,
421.000,0.0444478,
420.000,0.0447397,
419.000,0.0593824,
418.000,0.0848298,
417.000,0.105705,
416.000,0.107571,
415.000,0.100895,
414.000,0.100869,
413.000,0.103631,
412.000,0.0882023,
411.000,0.0665309,
410.000,0.0915816,
409.000,0.153213,
408.000,0.197502,
407.000,0.2018,
406.000,0.169767,
405.000,0.127474,
404.000,0.0909177,
403.000,0.0766503,
402.000,0.154567,
401.000,0.256956,
400.000,0.32193,
